timestamps,eeg_1,eeg_2,eeg_3,eeg_4,note
1748958310.1933665,622.7309,703.80273,393.58786,940.02625,
1748958310.1972666,640.1666,718.49475,0.0,8.408106,
1748958310.2011669,773.4572,739.9133,576.7076,204.53824,
1748958310.2050669,837.7129,748.941,1450.0,1233.5134,
1748958310.2089670,743.45355,736.7271,1413.4469,1450.0,
1748958310.2128673,622.8194,722.38904,438.10657,1008.17615,
1748958310.2167673,636.44934,717.78674,0.0,89.39144,
1748958310.2206674,773.1917,732.12476,583.257,72.75224,
1748958310.2245677,853.90955,753.10077,1412.5618,1017.73486,
1748958310.2284677,760.1813,749.295,1450.0,1450.0,
1748958310.2323680,633.5287,721.681,572.9903,1168.9037,
1748958310.2362680,644.1494,703.18317,0.0,265.78467,
1748958310.2401681,765.5802,718.9373,348.71512,8.142587,
1748958310.2440684,852.6705,746.72833,1299.7162,934.1848,
1748958310.2479684,780.5378,739.8248,1450.0,1450.0,
1748958310.2518685,640.7862,731.4167,896.83514,1311.8416,
1748958310.2557688,628.48376,717.60974,0.0,404.56265,
1748958310.2596688,738.3202,720.2649,183.91626,0.0,
1748958310.2635689,837.2703,753.54333,1211.7408,912.1467,
1748958310.2674692,804.523,747.34784,1450.0,1450.0,
1748958310.2713692,660.96564,730.8857,835.85425,1366.45,
1748958310.2752693,605.8262,720.3534,0.0,549.53613,
1748958310.2791696,724.1592,722.38904,141.69872,0.0,
1748958310.2830696,834.1726,740.6214,1170.9393,828.68524,
1748958310.2869697,802.57587,746.99384,1450.0,1450.0,
1748958310.2908700,680.7911,750.18005,941.2653,1323.0819,
1748958310.2947700,616.2699,709.2901,11.682842,416.51102,
1748958310.2986703,698.7579,703.62573,51.953243,0.0,
1748958310.3025703,834.5267,746.02026,1022.24866,218.69926,
1748958310.3064704,830.1013,743.7191,1450.0,915.06744,
1748958310.3103707,697.7843,734.3374,1149.6979,1040.9235,
1748958310.3142707,621.8458,715.13153,208.43253,151.43442,
1748958310.3181708,696.19116,701.8556,0.0,0.0,
1748958310.3220711,818.9495,729.02704,930.6446,0.0,
1748958310.3259711,824.61395,752.3927,1450.0,109.6594,
1748958310.3298712,716.9902,731.0627,1316.7979,458.109,
1748958310.3337715,624.58954,691.76587,340.39554,89.037415,
1748958310.3376715,659.1955,697.07623,0.0,0.0,
1748958310.3415716,788.3263,710.70624,847.6256,16.019655,
1748958310.3454719,839.66003,703.62573,1450.0,30.977232,
1748958310.3493719,720.61896,703.27167,1411.3228,230.73613,
1748958310.3532720,601.7549,687.6061,416.51102,100.89727,
1748958310.3571723,646.7161,673.268,0.0,0.0,
1748958310.3610723,774.0768,709.4671,1068.3605,66.91082,
1748958310.3649726,830.6324,740.7099,1450.0,873.8235,
1748958310.3688726,737.1696,711.8568,1207.227,1053.6685,
1748958310.3727727,614.5883,675.39215,260.29727,75.49594,
1748958310.3766730,632.5551,673.0025,0.0,0.0,
1748958310.3805730,776.1124,702.4751,565.0247,50.006104,
1748958310.3844731,839.83704,714.15796,1408.4905,0.0,
1748958310.3883734,748.4099,705.0418,1450.0,602.1089,
1748958310.3922734,629.19183,682.6497,871.52234,561.6615,
1748958310.3961735,620.78375,674.59564,0.0,0.0,
1748958310.4000738,730.0006,713.0074,358.0968,0.0,
1748958310.4039738,825.5875,733.45233,1364.2373,454.56876,
1748958310.4078739,790.00793,716.7247,1450.0,1392.6478,
1748958310.4117742,659.90356,709.82117,781.86536,1144.653,
1748958310.4156742,629.5459,697.5188,0.0,109.5709,
1748958310.4195743,746.55133,711.32574,253.03973,0.0,
1748958310.4234746,850.10376,727.2569,1268.8274,761.5974,
1748958310.4273746,813.0196,723.7167,1450.0,1433.6263,
1748958310.4312749,666.3645,715.48553,855.5027,1410.4376,
1748958310.4351749,619.2791,699.2889,0.0,569.7156,
1748958310.4390750,732.12476,701.059,282.33536,0.0,
1748958310.4429753,845.50146,725.13275,1228.557,906.4823,
1748958310.4468753,812.1345,720.3534,1450.0,1450.0,
1748958310.4507754,685.92444,709.2901,967.1092,1450.0,
1748958310.4546757,614.23425,693.89,33.632423,1024.2843,
1748958310.4585757,707.34296,695.3946,15.488616,45.757797,
1748958310.4624758,843.5543,723.7167,986.6691,781.2458,
1748958310.4663761,828.86224,732.7443,1450.0,1450.0,
1748958310.4702761,684.86237,706.72345,887.896,1450.0,
1748958310.4741762,599.0997,681.1451,23.71971,1114.2068,
1748958310.4780765,670.61285,704.06824,0.0,110.63297,
1748958310.4819765,810.89545,729.8236,799.0356,657.24835,
1748958310.4858766,825.853,727.78796,1450.0,1450.0,
1748958310.4897768,701.5016,717.87524,1156.6898,1450.0,
1748958310.4936769,608.3928,701.236,131.43198,1229.6191,
1748958310.4975772,664.06335,703.80273,0.0,222.94757,
1748958310.5014772,791.9551,729.5581,914.62494,606.97675,
1748958310.5053773,820.89667,745.4007,1450.0,1450.0,
1748958310.5092776,723.4511,734.2489,1200.5005,1438.3171,
1748958310.5131776,610.78253,720.4419,254.89838,1387.3375,
1748958310.5170777,626.0941,711.06024,0.0,370.04517,
1748958310.5209780,750.00305,733.5409,532.6314,383.2326,
1748958310.5248780,801.42523,765.9342,1450.0,1446.5482,
1748958310.5287781,713.62695,766.9963,1373.442,1450.0,
1748958310.5326784,588.56744,737.7892,484.83795,1441.6804,
1748958310.5365784,591.4881,736.10754,0.0,542.27856,
1748958310.5404785,708.6706,766.3767,350.48526,283.1319,
1748958310.5443788,772.9262,792.3091,1375.8317,1367.6891,
1748958310.5482788,681.1451,793.7252,1440.4413,1450.0,
1748958310.5521789,539.09235,787.6183,451.47104,1450.0,
1748958310.5560791,526.1704,775.31586,0.0,734.0719,
1748958310.5599792,642.73334,791.8666,227.81541,226.04529,
1748958310.5638795,728.496,825.5875,1261.6584,1264.8446,
1748958310.5677795,665.0369,830.2783,1450.0,1450.0,
1748958310.5716796,526.79,822.48975,469.43784,1450.0,
1748958310.5755799,499.6185,819.4805,0.0,858.7774,
1748958310.5794799,622.9079,830.1013,188.7841,159.93103,
1748958310.5833800,735.488,860.282,1169.7888,1134.5632,
1748958310.5872803,684.3313,853.99805,1450.0,1450.0,
1748958310.5911803,560.5109,833.02203,565.2902,1450.0,
1748958310.5950804,531.92334,825.853,0.0,1046.3224,
1748958310.5989807,654.06213,832.75653,73.19478,124.085945,
1748958310.6028807,792.0436,851.07733,962.24133,970.8265,
1748958310.6067808,783.10443,841.6072,1450.0,1450.0,
1748958310.6106811,661.7622,839.21747,1404.3307,1450.0,
1748958310.6145811,619.9872,798.6816,479.08502,792.1321,
1748958310.6184812,730.8857,770.094,0.0,0.0,
1748958310.6223814,836.7393,799.83215,788.85736,801.0712,
1748958310.6262815,832.75653,790.27344,1450.0,1450.0,
1748958310.6301818,731.59375,762.6595,961.9758,1450.0,
1748958310.6340818,654.5932,740.09033,0.0,938.69867,
1748958310.6379819,731.68225,734.77997,16.196667,21.684063,
1748958310.6418822,864.1763,751.6847,981.71277,655.9208,
1748958310.6457822,880.1074,759.4732,1450.0,1450.0,
1748958310.6496823,766.0227,744.6042,1083.8491,1450.0,
1748958310.6535826,657.07135,715.5741,140.45963,1013.5751,
1748958310.6574826,727.78796,709.99817,0.0,72.39822,
1748958310.6613827,878.0718,733.6294,693.6245,395.712,
1748958310.6652830,904.6237,742.2145,1450.0,1394.064,
1748958310.6691830,780.1837,724.3362,1267.4999,1450.0,
1748958310.6730831,666.0105,708.228,352.6979,986.04956,
1748958310.6769834,694.6866,700.08545,0.0,52.7498,
1748958310.6808834,830.8979,713.53845,528.6486,344.99786,
1748958310.6847835,895.3305,730.7087,1450.0,1362.4672,
1748958310.6886837,783.8125,717.69824,1373.7075,1450.0,
1748958310.6925838,650.5219,697.07623,392.79132,1321.0463,
1748958310.6964841,684.77386,691.58887,0.0,361.28305,
1748958310.7003841,820.89667,701.6786,387.39243,243.92358,
1748958310.7042842,885.2408,716.4591,1392.3823,1350.0763,
1748958310.7081845,801.6908,716.7247,1426.3688,1450.0,
1748958310.7120845,675.39215,704.06824,419.43173,1450.0,
1748958310.7159846,666.1875,694.8636,0.0,718.7603,
1748958310.7198849,782.04236,701.8556,317.02985,248.43741,
1748958310.7237849,871.4338,725.5753,1280.6873,1288.2988,
1748958310.7276850,817.4449,729.11554,1450.0,1450.0,
1748958310.7315853,687.075,707.6085,492.80353,1450.0,
1748958310.7354853,675.12665,688.4911,0.0,981.62427,
1748958310.7393854,795.76086,703.53723,172.41043,183.65074,
1748958310.7432857,871.96484,736.28455,1121.5529,1129.9609,
1748958310.7471857,836.29675,740.7984,1450.0,1450.0,
1748958310.7510858,714.42346,715.22003,835.4117,1450.0,
1748958310.7549860,658.93,699.2004,0.0,887.719,
1748958310.7588861,757.26056,709.73267,42.21754,66.291275,
1748958310.7627864,862.2291,729.20404,1005.43243,967.4632,
1748958310.7666864,834.9692,728.14197,1450.0,1450.0,
1748958310.7705865,702.56366,715.043,732.8328,1450.0,
1748958310.7744868,620.0757,697.6958,0.0,976.13684,
1748958310.7783868,703.18317,689.6417,56.20155,92.31215,
1748958310.7822869,831.51746,709.82117,1039.95,924.4491,
1748958310.7861872,833.28754,728.496,1450.0,1450.0,
1748958310.7900872,706.4579,722.12354,851.16583,1434.2458,
1748958310.7939873,618.04004,704.5993,21.330038,1284.493,
1748958310.7978876,699.2004,703.44867,0.0,341.98865,
1748958310.8017876,823.5519,726.8144,743.8961,767.4388,
1748958310.8056877,845.0589,741.2409,1450.0,1450.0,
1748958310.8095880,729.20404,727.87646,988.0852,1426.2803,
1748958310.8134880,616.0044,699.0234,120.368675,1317.2405,
1748958310.8173881,682.29565,699.90845,0.0,601.4893,
1748958310.8212883,822.13574,735.93054,548.56256,858.9544,
1748958310.8251884,842.93475,748.6755,1450.0,1450.0,
1748958310.8290884,736.7271,730.7972,1210.6787,1403.0917,
1748958310.8329887,623.70447,716.4591,198.4313,1450.0,
1748958310.8368888,664.7714,716.4591,0.0,876.6557,
1748958310.8407891,811.16095,738.4972,405.80176,747.34784,
1748958310.8446891,860.282,750.6226,1434.5114,1450.0,
1748958310.8485892,765.40314,741.0639,1282.2804,1443.5391,
1748958310.8524895,637.2459,726.9914,170.6403,1450.0,
1748958310.8563895,666.80707,715.5741,0.0,909.6686,
1748958310.8602896,805.3195,741.949,935.86646,958.43555,
1748958310.8641899,860.0165,776.1124,1450.0,1450.0,
1748958310.8680899,774.78485,750.26855,946.2217,1407.7825,
1748958310.8719900,656.80585,713.0074,58.768234,1450.0,
1748958310.8758903,648.57477,707.7855,0.0,650.6104,
1748958310.8797903,773.8113,722.9201,109.6594,164.97589,
1748958310.8836904,845.67847,745.4892,1096.417,1214.3075,
1748958310.8875906,758.41113,746.19727,1406.4548,1450.0,
1748958310.8914907,639.9011,732.8328,435.4514,1406.0123,
1748958310.8953907,619.1021,720.4419,0.0,642.2908,
1748958310.8992910,739.20526,735.57654,44.872734,24.427761,
1748958310.9031911,828.0657,757.7031,976.40234,1013.6636,
1748958310.9070914,780.1837,748.2329,1450.0,1450.0,
1748958310.9109914,655.4782,737.1696,511.38986,1380.965,
1748958310.9148915,609.3664,726.1948,0.0,627.0677,
1748958310.9187918,705.7499,729.8236,98.06507,0.0,
1748958310.9226918,814.34717,749.118,1061.103,806.73566,
1748958310.9265919,797.08844,757.34906,1450.0,1450.0,
1748958310.9304922,665.1254,754.8709,685.83594,1394.3295,
1748958310.9343922,595.73645,745.0467,0.0,614.41125,
1748958310.9382923,677.3393,744.6927,20.002441,0.0,
1748958310.9421926,790.539,778.59064,882.40857,508.2036,
1748958310.9460926,779.47565,797.6195,1450.0,1390.0812,
1748958310.9499927,651.1414,785.4941,867.1855,1410.0836,
1748958310.9538929,557.5902,763.3675,12.744919,544.4027,
1748958310.9577930,619.3676,771.51013,0.0,0.0,
1748958310.9616930,744.8697,812.6656,756.1985,228.61197,
1748958310.9655933,761.15485,829.6588,1450.0,1095.7975,
1748958310.9694934,642.2023,819.4805,925.68823,1286.4402,
1748958310.9733937,515.9922,814.61273,47.262405,361.9911,
1748958310.9772937,561.8385,823.1978,0.0,0.0,
1748958310.9811938,705.3073,842.1382,652.73456,140.63664,
1748958310.9850941,738.85126,843.11176,1450.0,914.80194,
1748958310.9889941,615.2963,836.7393,1257.4102,1401.8525,
1748958310.9928942,481.03217,822.5783,210.82219,490.23682,
1748958310.9967945,532.36584,804.7885,0.0,0.0,
1748958311.0006945,686.9865,819.3035,863.0257,61.15791,
1748958311.0045946,740.9754,838.2439,1450.0,522.1876,
1748958311.0084949,644.592,813.4621,1315.2048,1216.6971,
1748958311.0123949,521.21405,780.8918,391.64072,538.2958,
1748958311.0162950,531.3923,761.8629,0.0,0.0,
1748958311.0201952,676.0117,778.1481,544.3142,48.324482,
1748958311.0240953,759.65027,800.00916,1410.4376,365.97388,
1748958311.0279953,647.6897,778.0596,1450.0,1214.573,
1748958311.0318956,537.4992,739.6478,824.52545,817.71045,
1748958311.0357957,562.458,716.4591,0.0,0.0,
1748958311.0396960,683.4462,723.0086,400.66837,0.17701276,
1748958311.0435960,775.8469,733.0983,1388.0455,400.49136,
1748958311.0474961,713.62695,715.8396,1450.0,1324.4094,
1748958311.0513964,593.7893,696.10266,764.07556,947.7263,
1748958311.0552964,581.57544,679.28644,0.0,0.0,
1748958311.0591965,703.53723,680.083,312.60452,30.357687,
1748958311.0630968,800.09766,690.7923,1307.4163,371.37277,
1748958311.0669968,767.96985,687.075,1450.0,1219.9719,
1748958311.0708969,654.9472,671.32086,867.80505,1145.9806,
1748958311.0747972,619.7217,650.7874,0.0,110.89849,
1748958311.0786972,737.7007,654.15063,433.0617,0.0,
1748958311.0825973,858.7774,682.11865,1330.1624,448.99286,
1748958311.0864975,846.121,689.37616,1450.0,1291.0426,
1748958311.0903976,714.9545,672.38293,1032.9579,1308.9208,
1748958311.0942976,637.5115,652.73456,55.759018,349.6887,
1748958311.0981979,735.134,657.6024,84.25807,0.0,
1748958311.1020980,867.0085,681.67615,1155.6278,443.59396,
1748958311.1059983,835.67725,690.0842,1450.0,1228.026,
1748958311.1098983,705.1303,693.713,1440.3528,1450.0,
1748958311.1137984,638.3965,686.01294,1235.6376,1355.2982,
1748958311.1176987,706.2809,683.6233,1150.0519,478.99652,
1748958311.1215987,844.3508,685.4819,1352.82,47.1739,
1748958311.1254988,851.5199,676.1887,1450.0,790.716,
1748958311.1293991,723.3626,683.1807,1103.3206,1269.093,
1748958311.1332991,629.5459,669.2852,71.15913,354.0255,
1748958311.1371992,689.9957,663.97485,0.0,0.0,
1748958311.1410995,808.32874,694.421,923.8296,168.95868,
1748958311.1449995,832.31396,718.40625,1450.0,906.3053,
1748958311.1488996,738.4087,711.14874,1168.4612,1446.9022,
1748958311.1527998,625.47455,692.2969,214.53946,610.16296,
1748958311.1566999,652.64606,695.3946,0.0,0.0,
1748958311.1605999,801.2482,725.7523,617.59753,155.59421,
1748958311.1645002,855.8567,742.65704,1450.0,964.89655,
1748958311.1684003,744.8697,730.5317,1362.8212,1450.0,
1748958311.1723006,618.9251,708.1395,459.52512,745.1352,
1748958311.1762006,635.12177,703.00616,0.0,0.0,
1748958311.1801007,764.42957,731.0627,481.7402,130.5469,
1748958311.1840010,832.5795,750.00305,1437.6976,975.51733,
1748958311.1879010,743.01105,737.6122,1447.1678,1450.0,
1748958311.1918011,615.0308,735.488,519.3554,1018.26587,
1748958311.1957014,609.4549,737.5237,0.0,70.185555,
1748958311.1996014,713.80396,748.4984,356.5037,55.139473,
1748958311.2035015,793.5482,771.59863,1351.7579,989.4128,
1748958311.2074018,727.0799,781.86536,1450.0,1450.0,
1748958311.2113018,580.9559,778.4136,569.273,1113.9413,
1748958311.2152019,561.75,774.96185,0.0,176.83574,
1748958311.2191021,676.2772,786.11365,319.50803,0.0,
1748958311.2230022,767.61584,813.81616,1251.5687,795.67236,
1748958311.2269022,712.1223,821.60474,1450.0,1450.0,
1748958311.2308025,563.52014,799.83215,708.4935,1263.6056,
1748958311.2347026,530.94977,776.1124,0.0,367.6555,
1748958311.2386029,652.91156,789.12286,167.63109,0.0,
1748958311.2425029,746.81683,825.23346,1136.7759,651.6725,
1748958311.2464030,704.5108,826.8266,1450.0,1450.0,
1748958311.2503033,597.5951,797.9735,982.95184,1316.8864,
1748958311.2542033,549.4476,777.086,45.40377,406.95233,
1748958311.2581034,658.8415,778.0596,6.1954465,0.0,
1748958311.2620037,782.13086,783.547,783.45844,258.88116,
1748958311.2659037,755.933,783.45844,1450.0,1239.0894,
1748958311.2698038,655.7438,772.21814,1076.326,1450.0,
1748958311.2737041,592.55023,744.8697,24.604773,538.2958,
1748958311.2776041,679.906,733.7179,44.430202,0.0,
1748958311.2815042,827.1806,744.4271,1079.2468,546.7924,
1748958311.2854044,841.1646,748.0559,1450.0,1374.5925,
1748958311.2893045,716.1936,733.36383,1138.9,1450.0,
1748958311.2932045,629.6344,705.8384,162.94025,665.0369,
1748958311.2971048,701.8556,692.2084,0.0,0.0,
1748958311.3010049,843.28876,713.0074,857.62683,338.2714,
1748958311.3049052,881.78906,728.496,1450.0,1257.2332,
1748958311.3088052,774.51935,708.405,1295.6449,1450.0,
1748958311.3127053,657.6024,676.1002,390.93268,774.69635,
1748958311.3166056,693.6245,667.3381,0.0,0.0,
1748958311.3205056,852.4934,692.73944,675.12665,273.75024,
1748958311.3244057,919.31573,712.1223,1450.0,1221.4766,
1748958311.3283060,819.215,700.35095,1383.7087,1450.0,
1748958311.3322060,680.6141,680.6141,445.5411,1013.6636,
1748958311.3361061,704.8648,677.87036,0.0,53.10383,
1748958311.3400064,865.5924,700.43945,524.66583,175.77367,
1748958311.3439064,938.1676,716.63617,1446.7252,1225.0168,
1748958311.3478065,836.29675,706.4579,1450.0,1450.0,
1748958311.3517067,707.43146,685.03937,450.40897,1104.7366,
1748958311.3556068,717.87524,672.20593,0.0,100.45474,
1748958311.3595068,841.7842,702.0326,985.78406,533.1624,
1748958311.3634071,914.97894,730.4431,1450.0,1450.0,
1748958311.3673072,829.9243,699.73145,1096.1515,1388.3995,
1748958311.3712075,696.19116,667.95764,280.12268,939.58374,
1748958311.3751075,676.1887,660.96564,0.0,139.92859,
1748958311.3790076,791.3355,677.2508,222.23952,0.0,
1748958311.3829079,871.0798,709.3786,1190.2338,671.32086,
1748958311.3868079,824.0829,709.82117,1450.0,1450.0,
1748958311.3907080,692.0314,685.12787,861.16705,1208.9086,
1748958311.3946083,649.4598,671.32086,0.0,223.21309,
1748958311.3985083,766.1997,684.59686,116.29738,0.0,
1748958311.4024084,874.3545,716.0166,1121.7299,652.91156,
1748958311.4063087,845.1474,718.31775,1450.0,1450.0,
1748958311.4102087,715.22003,693.8015,857.27277,1321.1348,
1748958311.4141088,657.5139,677.51636,0.0,375.53256,
1748958311.4180090,747.5249,689.19916,102.31338,0.0,
1748958311.4219091,868.6016,711.7683,1115.1804,550.7752,
1748958311.4258091,853.2015,721.681,1450.0,1362.3787,
1748958311.4297094,735.57654,713.0959,977.3759,1445.4862,
1748958311.4336095,658.6645,696.01416,40.2704,627.59875,
1748958311.4375098,730.7087,693.00494,12.656412,0.0,
1748958311.4414098,870.1062,718.8488,958.6126,569.8926,
1748958311.4453099,877.6293,732.12476,1450.0,1421.5895,
1748958311.4492102,727.52246,716.9902,1122.1724,1450.0,
1748958311.4531102,633.4401,690.34973,195.42209,955.2493,
1748958311.4570103,725.6638,684.3313,0.0,0.0,
1748958311.4609106,855.1486,716.0166,786.37915,460.4987,
1748958311.4648106,873.4694,734.957,1450.0,1420.6158,
1748958311.4687107,748.764,723.8937,1051.4558,1450.0,
1748958311.4726110,638.485,710.4407,149.92981,1024.5498,
1748958311.4765110,689.11066,706.90045,0.0,53.280838,
1748958311.4804111,822.7553,724.77875,643.9724,330.65982,
1748958311.4843113,855.5912,735.311,1450.0,1358.0419,
1748958311.4882114,751.3306,726.0178,1349.3683,1450.0,
1748958311.4921114,665.6565,708.7591,331.10236,1051.1018,
1748958311.4960117,685.83594,692.91644,0.0,95.67539,
1748958311.4999118,769.2974,713.0074,799.1241,173.73802,
1748958311.5038121,845.2359,735.311,1450.0,1192.7119,
1748958311.5077121,785.0516,719.6454,1372.9994,1450.0,
1748958311.5116122,652.64606,690.1727,474.04016,1116.9504,
1748958311.5155125,649.81384,664.06335,0.0,202.94513,
1748958311.5194125,773.1032,677.2508,427.04327,62.219986,
1748958311.5233126,860.99005,701.5901,1349.7223,1041.5431,
1748958311.5272129,780.6263,688.2256,1450.0,1450.0,
1748958311.5311129,632.7321,659.81506,843.37726,1206.5189,
1748958311.5350130,633.3516,648.3092,0.0,256.75702,
1748958311.5389132,755.579,666.0105,255.69493,0.0,
1748958311.5428133,848.9532,697.25323,1286.7942,921.4399,
1748958311.5467134,800.8057,702.65216,1450.0,1450.0,
1748958311.5506136,660.70013,686.898,754.16284,1289.2725,
1748958311.5545137,616.80096,671.05536,0.0,377.5682,
1748958311.5584137,723.4511,682.20715,183.47372,0.0,
1748958311.5623140,839.04047,702.2096,1201.0316,797.885,
1748958311.5662141,796.82294,705.7499,1450.0,1450.0,
1748958311.5701144,667.86914,694.8636,843.8198,1382.0271,
1748958311.5740144,617.77454,676.2772,0.0,536.43713,
1748958311.5779145,691.8544,679.552,168.16212,0.0,
1748958311.5818148,828.68524,708.9361,1127.4828,724.86725,
1748958311.5857148,834.2611,720.70746,1450.0,1450.0,
1748958311.5896149,700.9705,700.26245,954.8068,1442.7424,
1748958311.5935152,626.8907,679.8175,34.517487,779.47565,
1748958311.5974152,706.2809,694.3325,0.0,0.0,
1748958311.6013153,823.3748,725.6638,953.83325,601.2238,
1748958311.6052155,822.04724,727.3454,1450.0,1450.0,
1748958311.6091156,707.697,718.8488,1450.0,1444.1586,
1748958311.6130157,627.68726,708.6706,1085.2653,1420.7043,
1748958311.6169159,663.79785,708.1395,866.92,899.75586,
1748958311.6208160,779.5642,714.6005,1274.0493,357.03473,
1748958311.6247160,839.483,702.56366,975.78284,191.17378,
1748958311.6286163,738.85126,707.16595,599.89624,1112.9677,
1748958311.6325164,626.3596,705.2188,98.24208,833.19904,
1748958311.6364167,663.88635,698.7579,0.0,0.0,
1748958311.6403167,794.0792,712.1223,809.1253,235.24995,
1748958311.6442168,857.98083,729.8236,1450.0,1140.9357,
1748958311.6481171,760.1813,725.48676,1207.1385,1450.0,
1748958311.6520171,627.0677,706.1039,253.83629,831.69446,
1748958311.6559172,660.25757,700.17395,0.0,0.08850638,
1748958311.6598175,805.5851,720.4419,501.1231,111.42953,
1748958311.6637175,870.8143,736.46155,1432.3872,995.4312,
1748958311.6676176,766.7308,729.5581,1427.2539,1450.0,
1748958311.6715178,626.0056,712.2993,537.58777,790.45044,
1748958311.6754179,645.91956,706.1924,0.0,0.0,
1748958311.6793180,778.85614,721.14996,375.9751,74.52237,
1748958311.6832182,849.3957,743.8961,1365.919,877.1867,
1748958311.6871183,773.8998,738.67426,1450.0,1450.0,
1748958311.6910183,653.00006,717.1672,607.33075,1077.9192,
1748958311.6949186,612.0216,705.3073,0.0,105.234085,
1748958311.6988187,718.14075,720.97296,287.02618,8.142587,
1748958311.7027190,852.0509,741.6835,1290.954,885.1523,
1748958311.7066190,792.3976,742.83405,1450.0,1450.0,
1748958311.7105191,636.27234,729.9121,700.26245,1180.4095,
1748958311.7144194,613.88025,714.866,0.0,228.966,
1748958311.7183194,731.4167,719.2913,241.4454,0.0,
1748958311.7222195,837.0933,746.02026,1187.5786,703.89124,
1748958311.7261198,802.9299,748.3214,1450.0,1450.0,
1748958311.7300198,650.43335,722.7431,828.86224,1326.1796,
1748958311.7339199,586.17773,707.07745,0.0,450.49747,
1748958311.7378201,702.91766,715.6626,99.56968,0.0,
1748958311.7417202,818.32996,736.8156,1065.4398,591.3111,
1748958311.7456203,804.7,746.81683,1450.0,1441.5919,
1748958311.7495205,675.30365,732.39026,1080.2203,1392.2053,
1748958311.7534206,595.1169,715.6626,88.32937,505.90247,
1748958311.7573206,688.75665,719.9994,0.0,0.0,
1748958311.7612209,818.9495,743.36505,932.50323,496.16675,
1748958311.7651210,796.20337,744.3386,1450.0,1348.1292,
1748958311.7690213,678.40137,728.58453,1108.0999,1446.9022,
1748958311.7729213,609.72046,717.87524,93.816765,656.71735,
1748958311.7768214,658.93,716.63617,0.0,0.0,
1748958311.7807217,794.9643,740.7099,996.1393,444.74454,
1748958311.7846217,825.853,754.8709,1450.0,1332.375,
1748958311.7885218,702.1211,744.5157,1182.3567,1450.0,
1748958311.7924221,605.56067,723.8052,222.68205,770.80206,
1748958311.7963221,647.33563,715.5741,0.0,0.0,
1748958311.8002222,775.5814,749.0295,712.4763,234.27638,
1748958311.8041224,816.6484,768.6779,1450.0,1174.6566,
1748958311.8080225,706.2809,760.71234,1336.3578,1450.0,
1748958311.8119226,578.38916,733.2753,443.771,793.6367,
1748958311.8158228,600.25024,726.6374,0.0,0.0,
1748958311.8197229,734.69147,763.456,527.85205,180.02197,
1748958311.8236229,787.2642,782.39636,1450.0,1111.8171,
1748958311.8275232,686.9865,777.70557,1418.5802,1450.0,
1748958311.8314233,556.52814,769.2089,476.0758,1033.312,
1748958311.8353236,557.23615,775.31586,0.0,80.71782,
1748958311.8392236,683.9773,798.9471,382.34756,91.427086,
1748958311.8431237,762.4824,805.7621,1368.3971,1107.5688,
1748958311.8470240,685.65894,805.231,1450.0,1450.0,
1748958311.8509240,541.0395,803.99194,487.75867,1128.5448,
1748958311.8548241,514.04504,806.0276,0.0,83.46152,
1748958311.8587244,645.0345,842.2267,953.3907,427.83984,
1748958311.8626244,743.45355,873.3809,1450.0,1332.198,
1748958311.8665245,675.8347,845.50146,1238.2927,1293.2552,
1748958311.8704247,562.104,826.9151,511.38986,1049.0662,
1748958311.8743248,545.1993,820.2771,0.0,196.21864,
1748958311.8782248,647.0701,828.59674,144.3539,0.0,
1748958311.8821251,755.579,851.16583,1093.0538,547.589,
1748958311.8860252,733.0983,844.43933,1450.0,1410.2606,
1748958311.8899252,603.7905,814.08167,908.6065,1253.3389,
1748958311.8938255,558.4752,800.45166,0.0,254.54434,
1748958311.8977256,674.59564,805.1425,39.385338,0.0,
1748958311.9016259,811.07245,819.5691,1003.83936,511.9209,
1748958311.9055259,805.4965,814.70123,1450.0,1411.8538,
1748958311.9094260,672.29443,792.4861,916.218,1357.9534,
1748958311.9133263,615.0308,774.0768,0.0,386.59586,
1748958311.9172263,707.25446,774.78485,48.14747,0.0,
1748958311.9211264,849.3957,787.1757,1037.2063,394.82697,
1748958311.9250267,876.47864,785.93665,1450.0,1263.7826,
1748958311.9289267,747.25934,777.79407,1033.489,1450.0,
1748958311.9328268,667.4266,761.06635,89.037415,591.3996,
1748958311.9367270,734.2489,745.75476,0.0,0.0,
1748958311.9406271,845.4129,761.8629,829.8358,366.15088,
1748958311.9445271,887.542,777.97107,1450.0,1269.447,
1748958311.9484274,787.3527,756.99506,1197.6683,1450.0,
1748958311.9523275,681.3221,728.14197,283.75146,878.69135,
1748958311.9562275,733.45233,725.13275,0.0,0.0,
1748958311.9601278,850.8118,741.6835,662.8243,263.4835,
1748958311.9640279,897.6317,752.3927,1450.0,1240.9479,
1748958311.9679279,803.99194,737.4351,1137.2185,1450.0,
1748958311.9718282,679.729,717.1672,224.7177,939.0527,
1748958311.9757283,710.97174,706.54645,0.0,16.285173,
1748958311.9796286,850.7233,716.9902,526.613,203.29915,
1748958311.9835286,899.4903,733.5409,1450.0,1243.1606,
1748958311.9874287,783.9895,729.11554,1414.1549,1450.0,
1748958311.9913290,670.4358,716.4591,418.45816,1050.8362,
1748958311.9952290,683.9773,702.3866,0.0,112.66862,
1748958311.9991291,810.71844,704.24524,703.71423,86.73625,
1748958312.0030293,901.08344,730.2661,1450.0,1079.1583,
1748958312.0069294,815.9403,735.3995,1433.7148,1450.0,
1748958312.0108294,676.4542,708.6706,587.9479,1196.2522,
1748958312.0147297,673.091,685.83594,0.0,280.3882,
1748958312.0186298,795.76086,707.16595,329.42075,3.717268,
1748958312.0225298,895.242,735.93054,1284.139,975.07477,
1748958312.0264301,846.121,730.9742,1450.0,1450.0,
1748958312.0303302,696.6337,707.7855,916.3065,1277.9436,
1748958312.0342302,646.45056,690.43823,0.0,368.18652,
1748958312.0381305,756.11,703.27167,170.8173,0.0,
1748958312.0420306,884.0902,731.4167,1203.5098,839.92554,
1748958312.0459309,857.80383,730.2661,1450.0,1450.0,
1748958312.0498309,705.2188,712.8304,863.73376,1332.729,
1748958312.0537310,653.88513,701.5901,0.0,451.117,
1748958312.0576313,758.6767,709.2016,115.323814,0.0,
1748958312.0615313,873.3809,724.60175,1137.838,677.1623,
1748958312.0654314,855.4141,729.20404,1450.0,1433.4493,
1748958312.0693316,710.1752,723.9822,944.9826,1416.3676,
1748958312.0732317,630.1654,703.89124,17.701275,595.2054,
1748958312.0771317,715.39703,702.2096,35.845085,0.0,
1748958312.0810320,842.1382,731.50525,991.2714,565.8213,
1748958312.0849321,850.5463,739.11676,1450.0,1421.855,
1748958312.0888321,722.12354,718.7603,1072.0778,1450.0,
1748958312.0927324,621.6688,696.5452,142.49527,801.0712,
1748958312.0966325,689.11066,702.0326,0.0,0.0,
1748958312.1005325,824.70245,729.8236,849.2187,410.40408,
1748958312.1044328,836.6508,735.3995,1450.0,1359.7235,
1748958312.1083329,724.1592,728.319,1450.0,1449.646,
1748958312.1122332,622.6424,715.30853,1145.0956,1450.0,
1748958312.1161332,672.8255,712.0338,818.9495,788.85736,
1748958312.1200333,820.71967,720.1764,1200.6775,82.576454,
1748958312.1239336,859.3969,720.79596,1450.0,758.49963,
1748958312.1278336,750.18005,726.5489,1142.5288,1433.0953,
1748958312.1317337,638.83905,713.0959,154.53214,642.55634,
1748958312.1356339,665.568,699.4659,0.0,0.0,
1748958312.1395340,805.9391,716.3706,647.5127,117.62498,
1748958312.1434340,858.33484,745.4007,1450.0,899.84436,
1748958312.1473343,750.7996,741.0639,1244.9307,1450.0,
1748958312.1512344,632.46655,712.6534,273.75024,915.51,
1748958312.1551344,650.7874,699.3774,0.0,37.61521,
1748958312.1590347,790.8045,727.61096,348.18408,55.847527,
1748958312.1629348,872.7614,752.3042,1337.3314,923.6526,
1748958312.1668348,793.19415,744.9582,1450.0,1450.0,
1748958312.1707351,647.8667,715.7511,560.5109,906.0398,
1748958312.1746352,617.332,700.17395,0.0,31.419764,
1748958312.1785355,766.1997,722.5661,246.84428,28.499054,
1748958312.1824355,863.91077,742.83405,1250.9491,883.38214,
1748958312.1863356,807.7092,736.46155,1450.0,1450.0,
1748958312.1902359,680.3485,724.86725,673.3565,1245.6388,
1748958312.1941359,621.5803,718.8488,0.0,297.1159,
1748958312.1980360,741.949,730.6202,180.90704,0.0,
1748958312.2019362,864.61884,742.56854,1195.8982,899.75586,
1748958312.2058363,833.9071,733.0983,1450.0,1450.0,
1748958312.2097363,694.244,723.9822,764.16406,1302.1943,
1748958312.2136366,613.61475,732.03625,0.0,421.8214,
1748958312.2175367,716.54767,761.6859,128.24574,0.0,
1748958312.2214367,849.0417,799.1241,1067.1215,672.02893,
1748958312.2253370,832.93353,811.692,1450.0,1450.0,
1748958312.2292371,710.79474,802.57587,907.72144,1406.1893,
1748958312.2331371,645.74255,796.73444,4.7793446,623.3504,
1748958312.2370374,719.4683,809.1253,16.285173,0.0,
1748958312.2409375,840.6336,841.5187,936.30896,525.8164,
1748958312.2448378,868.24756,866.566,1450.0,1419.4653,
1748958312.2487378,746.81683,850.36926,1150.0519,1449.823,
1748958312.2526379,659.54956,837.8014,156.7448,657.42535,
1748958312.2565382,727.96497,847.5371,0.0,0.0,
1748958312.2604382,859.0429,871.52234,802.8414,415.0949,
1748958312.2643383,891.2592,879.8419,1450.0,1297.415,
1748958312.2682385,771.51013,869.7522,1194.482,1450.0,
1748958312.2721386,665.922,849.4842,167.80809,823.6404,
1748958312.2760386,723.7167,836.8278,0.0,0.0,
1748958312.2799389,851.9624,866.4774,906.0398,347.29904,
1748958312.2838390,882.93964,888.427,1450.0,1313.6117,
1748958312.2877390,783.724,867.98206,1232.8053,1450.0,
1748958312.2916393,673.091,842.2267,286.1411,933.9193,
1748958312.2955394,699.3774,835.50024,0.0,53.45785,
1748958312.2994394,836.20825,856.2107,563.87415,159.93103,
1748958312.3033397,899.57886,872.14185,1450.0,1134.8287,
1748958312.3072398,797.44244,858.42334,1416.8986,1450.0,
1748958312.3111401,677.1623,827.1806,541.2165,839.3945,
1748958312.3150401,690.8808,804.25745,0.0,0.0,
1748958312.3189402,790.45044,824.79095,408.36844,96.73747,
1748958312.3228405,874.62006,849.4842,1387.426,988.0852,
1748958312.3267405,828.2427,830.8979,1450.0,1450.0,
1748958312.3306406,697.43024,804.523,595.55945,1104.8251,
1748958312.3345408,664.5059,794.6103,0.0,140.81364,
1748958312.3384409,783.9895,802.3103,296.14233,13.895501,
1748958312.3423409,882.76263,814.17017,1293.6978,957.90454,
1748958312.3462412,822.9323,810.2759,1450.0,1450.0,
1748958312.3501413,685.4819,789.12286,643.26434,1217.6708,
1748958312.3540413,648.0437,762.3939,0.0,168.16212,
1748958312.3579416,764.07556,784.1665,874.443,281.98132,
1748958312.3618417,872.23035,823.2863,1450.0,1342.2877,
1748958312.3657417,809.3023,798.5931,1205.8109,1390.0812,
1748958312.3696420,671.49786,763.279,413.5018,1036.0557,
1748958312.3735421,643.7069,748.8525,0.0,276.84796,
1748958312.3774424,749.118,753.2778,58.237198,0.0,
1748958312.3813424,857.09576,779.47565,943.21246,488.11267,
1748958312.3852425,832.40247,785.67114,1450.0,1370.6982,
1748958312.3891428,687.8716,764.07556,980.2081,1363.8833,
1748958312.3930428,620.69525,744.2501,39.031315,409.87305,
1748958312.3969429,714.33496,745.93176,0.0,0.0,
1748958312.4008431,838.1554,769.74,841.1646,475.45627,
1748958312.4047432,845.85547,772.7492,1450.0,1389.6387,
1748958312.4086432,711.41425,757.08356,989.2358,1439.9103,
1748958312.4125435,612.5527,741.2409,32.570347,573.87537,
1748958312.4164436,688.84515,743.18805,0.0,0.0,
1748958312.4203436,835.0577,762.3054,878.51434,305.96655,
1748958312.4242439,864.4418,768.8549,1450.0,1223.6892,
1748958312.4281440,755.4019,765.40314,1115.2689,1450.0,
1748958312.4320440,653.26556,746.02026,157.01031,783.547,
1748958312.4359443,683.1807,729.5581,0.0,0.0,
1748958312.4398444,801.5138,751.9502,674.86115,279.41464,
1748958312.4437447,848.5992,771.59863,1450.0,1224.7512,
1748958312.4476447,749.2065,762.6595,1291.2196,1450.0,
1748958312.4515448,635.56433,742.303,394.2074,993.13007,
1748958312.4554451,661.7622,727.69946,0.0,24.339254,
1748958312.4593451,792.3976,741.1524,518.7359,159.22298,
1748958312.4632452,854.44055,755.8445,1450.0,1141.5553,
1748958312.4671454,752.92377,743.01105,1224.3087,1450.0,
1748958312.4710455,628.39526,732.47876,314.28616,1017.73486,
1748958312.4749455,643.35284,731.68225,0.0,73.63731,
1748958312.4788458,766.5538,742.2145,403.7661,106.73869,
1748958312.4827459,854.8831,753.3663,1387.3375,1142.7943,
1748958312.4866459,790.6275,751.9502,1450.0,1450.0,
1748958312.4905462,644.3264,739.29376,533.3394,1128.1908,
1748958312.4944463,631.58154,725.39825,0.0,195.51059,
1748958312.4983463,762.3054,728.319,567.32587,2.3896723,
1748958312.5022466,849.3072,752.2157,1411.5883,928.96295,
1748958312.5061467,801.5138,764.16406,1450.0,1450.0,
1748958312.5100470,665.568,750.6226,680.5256,1234.0444,
1748958312.5139470,619.7217,730.0006,0.0,321.36667,
1748958312.5178471,733.8064,735.75354,211.0877,0.0,
1748958312.5217474,845.1474,769.563,1179.79,792.75165,
1748958312.5256474,801.0712,781.51135,1450.0,1450.0,
1748958312.5295475,663.70935,762.0399,985.1645,1318.6565,
1748958312.5334477,607.33075,739.29376,5.221876,408.36844,
1748958312.5373478,688.57965,742.74554,63.8131,0.0,
1748958312.5412478,781.68835,765.7572,1070.4846,653.17706,
1748958312.5451481,747.43634,768.32385,1450.0,1450.0,
1748958312.5490482,602.1089,752.92377,952.8597,1379.903,
1748958312.5529482,509.35422,738.1432,0.0,497.40585,
1748958312.5568485,573.0788,743.18805,43.279617,0.0,
1748958312.5607486,689.9072,756.55255,1053.757,472.71255,
1748958312.5646486,687.3405,763.1905,1450.0,1329.0118,
1748958312.5685489,547.2349,758.41113,1020.5671,1450.0,
1748958312.5724490,440.58475,734.4259,85.58567,629.8114,
1748958312.5763493,502.80475,720.88446,0.0,0.0,
1748958312.5802493,637.6,745.66626,836.11975,376.59464,
1748958312.5841494,656.62885,752.2157,1450.0,1287.4138,
1748958312.5880497,536.5257,727.87646,1162.0002,1450.0,
1748958312.5919497,435.6284,696.01416,242.15346,832.75653,
1748958312.5958498,478.554,686.8095,0.0,0.0,
1748958312.5997500,596.00195,707.874,697.16473,255.60641,
1748958312.6036501,658.6645,709.64417,1450.0,1220.7684,
1748958312.6075501,572.1052,695.83716,1450.0,1450.0,
1748958312.6114504,452.6216,674.94965,1163.9474,1450.0,
1748958312.6153505,491.47592,657.24835,811.869,839.30597,
1748958312.6192505,651.2299,645.0345,901.526,0.0,
1748958312.6231508,727.2569,625.29755,1003.75085,138.95502,
1748958312.6270509,616.88947,622.7309,1193.42,1234.841,
1748958312.6309509,518.7359,599.98474,297.64694,898.2512,
1748958312.6348512,558.5638,576.5306,0.0,0.0,
1748958312.6387513,688.2256,589.45245,594.5859,65.84875,
1748958312.6426516,782.9274,611.6676,1450.0,847.18304,
1748958312.6465516,703.36017,598.83417,1390.4352,1450.0,
1748958312.6504517,562.9891,565.3787,451.29404,1063.0502,
1748958312.6543519,587.2398,552.98785,0.0,145.41599,
1748958312.6582520,720.4419,569.9811,276.49393,0.0,
1748958312.6621521,810.2759,597.5066,1252.5422,825.23346,
1748958312.6660523,778.94464,600.07324,1450.0,1450.0,
1748958312.6699524,646.09656,577.76965,717.1672,1008.7072,
1748958312.6738524,630.4309,561.13043,0.0,124.70549,
1748958312.6777527,747.8789,584.58466,173.20699,0.0,
1748958312.6816528,851.25433,622.9079,1163.1509,769.2974,
1748958312.6855528,834.0841,626.5367,1450.0,1450.0,
1748958312.6894531,696.10266,615.3848,829.03925,1322.6393,
1748958312.6933532,633.7942,606.53424,0.0,404.9167,
1748958312.6972532,730.9742,614.49976,105.58811,0.0,
1748958312.7011535,856.0337,635.56433,1122.7034,766.4652,
1748958312.7050536,845.50146,643.7954,1450.0,1450.0,
1748958312.7089539,700.528,639.10455,898.8708,1368.9281,
1748958312.7128539,628.6608,617.4205,13.010438,522.0991,
1748958312.7167540,732.7443,609.1894,39.82787,0.0,
1748958312.7206542,855.5027,647.6012,951.26654,540.4199,
1748958312.7245543,844.7934,667.51514,1450.0,1401.1445,
1748958312.7284544,726.1063,647.7782,1045.3489,1450.0,
1748958312.7323546,639.9011,630.785,109.74791,751.5962,
1748958312.7362547,700.35095,629.9884,0.0,0.0,
1748958312.7401547,853.64404,665.2139,810.0989,391.99475,
1748958312.7440550,882.40857,690.1727,1450.0,1340.1636,
1748958312.7479551,737.2581,666.1875,1253.6929,1450.0,
1748958312.7518551,636.09534,645.2115,263.92603,785.75964,
1748958312.7557554,697.5188,649.72534,0.0,0.0,
1748958312.7596555,829.12775,675.12665,692.65094,302.4263,
1748958312.7635555,868.6016,685.03937,1450.0,1214.3075,
1748958312.7674558,763.54456,672.47144,1323.0819,1450.0,
1748958312.7713559,651.2299,667.51514,303.22284,942.68146,
1748958312.7752562,678.66693,663.53235,0.0,11.771348,
1748958312.7791562,807.08966,675.30365,824.79095,200.90948,
1748958312.7830563,867.3625,696.7222,1450.0,1195.7212,
1748958312.7869565,781.95386,691.76587,1356.8912,1450.0,
1748958312.7908566,660.61163,672.29443,448.72733,1067.033,
1748958312.7947567,654.7702,656.89435,0.0,162.76323,
1748958312.7986569,765.13763,677.51636,469.26083,76.115486,
1748958312.8025570,859.751,706.2809,1388.488,1058.8018,
1748958312.8064570,803.72644,705.3958,1450.0,1450.0,
1748958312.8103573,667.86914,684.68536,705.5729,970.915,
1748958312.8142574,654.15063,666.63007,0.0,89.92248,
1748958312.8181574,772.5722,684.3313,304.99298,31.685284,
1748958312.8220577,864.1763,712.5649,1304.4955,945.0711,
1748958312.8259578,808.06323,710.3522,1450.0,1450.0,
1748958312.8298578,678.40137,695.74866,737.0811,1263.6941,
1748958312.8337581,638.57355,684.95087,0.0,330.04028,
1748958312.8376582,740.7984,699.99695,198.87383,0.0,
1748958312.8415585,861.25555,718.14075,1211.0328,931.61816,
1748958312.8454585,832.668,718.8488,1450.0,1450.0,
1748958312.8493586,683.8888,706.63495,785.67114,1351.5809,
1748958312.8532588,628.30676,689.02216,0.0,368.45206,
1748958312.8571589,737.0811,716.7247,825.853,285.43307,
1748958312.8610590,853.55554,739.6478,1450.0,1120.4022,
1748958312.8649592,836.7393,720.2649,1450.0,1248.9135,
1748958312.8688593,704.24524,704.6878,878.86835,1346.8015,
1748958312.8727593,634.2367,677.2508,0.0,547.0579,
1748958312.8766596,704.7763,683.8888,5.7529144,0.0,
1748958312.8805597,830.8094,723.3626,875.5936,468.9068,
1748958312.8844597,851.07733,736.28455,1450.0,1367.6006,
1748958312.8883600,713.0074,719.3798,1118.8091,1450.0,
1748958312.8922601,616.71246,701.3245,133.2906,633.9712,
1748958312.8961601,694.7751,700.882,0.0,0.0,
1748958312.9000604,834.9692,719.0258,753.63184,394.73843,
1748958312.9039605,843.9968,730.2661,1450.0,1348.9257,
1748958312.9078608,715.8396,721.41547,1153.8577,1450.0,
1748958312.9117608,613.88025,702.2981,143.0263,758.8537,
1748958312.9156609,668.13464,701.5901,0.0,0.0,
1748958312.9195611,804.16895,726.9029,769.4744,238.96722,
1748958312.9234612,847.8911,744.4271,1450.0,1204.8373,
1748958312.9273612,746.90533,732.5673,1246.7893,1450.0,
1748958312.9312615,627.77576,710.4407,268.70535,930.379,
1748958312.9351616,656.62885,699.64294,0.0,50.714153,
1748958312.9390616,800.36316,719.0258,567.06036,169.48972,
1748958312.9429619,853.64404,746.55133,1450.0,1132.4391,
1748958312.9468620,750.35706,738.58575,1404.7732,1450.0,
1748958312.9507620,632.11255,711.7683,563.2546,1057.3857,
1748958312.9546623,653.00006,703.09467,0.0,93.816765,
1748958312.9585624,777.97107,725.8408,396.50858,53.634865,
1748958312.9624624,830.6324,746.55133,1408.6675,965.6931,
1748958312.9663627,771.33307,735.75354,1326.6221,1450.0,
1748958312.9702628,655.3012,718.8488,443.41696,1078.6272,
1748958312.9741631,633.7057,711.5028,0.0,132.58255,
1748958312.9780631,756.0215,720.4419,298.4435,3.8942807,
1748958312.9819632,851.6969,737.9662,1299.6277,909.1375,
1748958312.9858634,781.86536,738.2317,1450.0,1450.0,
1748958312.9897635,640.0781,726.9914,671.7634,1164.0359,
1748958312.9936635,615.2078,719.4683,0.0,214.80498,
1748958312.9975638,722.21204,720.53046,418.19263,0.0,
1748958313.0014639,822.5783,742.3915,1317.4175,699.73145,
1748958313.0053639,786.02515,754.16284,1450.0,1450.0,
1748958313.0092642,634.59076,739.7363,807.97473,1318.568,
1748958313.0131643,564.05115,719.4683,0.0,394.64993,
1748958313.0170643,682.38416,734.957,106.38467,0.0,
1748958313.0209646,809.0368,771.33307,1065.8823,636.8919,
1748958313.0248647,776.2894,775.40436,1450.0,1450.0,
1748958313.0287647,629.5459,759.2962,1058.1823,1395.8341,
1748958313.0326650,548.297,753.10077,75.67295,532.9854,
1748958313.0365651,625.8286,760.4468,0.0,0.0,
1748958313.0404654,742.83405,788.76886,920.7319,540.1544,
1748958313.0443654,737.6122,800.5402,1450.0,1420.1733,
1748958313.0482655,604.49854,795.93787,1048.535,1450.0,
1748958313.0521657,508.73465,788.4148,66.114265,681.4106,
1748958313.0560658,582.6375,792.57465,0.0,0.0,
1748958313.0599658,718.49475,814.78973,920.3778,350.13123,
1748958313.0638661,727.87646,825.32196,1450.0,1259.8883,
1748958313.0677662,614.5883,818.5955,1135.5369,1450.0,
1748958313.0716662,514.8416,795.84937,173.64952,808.41724,
1748958313.0755665,562.104,784.7861,0.0,0.0,
1748958313.0794666,692.2084,816.9139,700.35095,288.97333,
1748958313.0833666,739.47076,834.6152,1450.0,1240.1514,
1748958313.0872669,659.54956,804.7885,1293.7863,1450.0,
1748958313.0911670,537.2337,774.60785,400.8454,1006.406,
1748958313.0950670,582.01794,765.6687,0.0,35.93359,
1748958313.0989673,726.8144,785.4941,573.2558,148.69072,
1748958313.1028674,776.46643,796.3804,1433.0068,1158.46,
1748958313.1067677,707.07745,785.4056,1450.0,1450.0,
1748958313.1106677,604.6756,763.3675,1301.8403,1450.0,
1748958313.1145678,586.35474,743.8961,788.0608,966.6667,
1748958313.1184680,742.0375,734.1604,558.4752,47.97046,
1748958313.1223681,857.62683,723.9822,1271.3942,612.4641,
1748958313.1262681,772.30664,713.80396,1419.3768,1450.0,
1748958313.1301684,653.26556,693.44745,355.35312,949.2309,
1748958313.1340685,649.90234,681.58765,0.0,21.77257,
1748958313.1379685,771.95264,687.429,410.31558,2.2126594,
1748958313.1418688,884.4442,704.5993,1335.6498,735.75354,
1748958313.1457689,846.0325,698.6694,1450.0,1450.0,
1748958313.1496689,710.52924,681.1451,540.4199,1195.6327,
1748958313.1535692,679.19794,663.97485,0.0,279.85718,
1748958313.1574693,780.5378,677.78186,160.9931,0.0,
1748958313.1613693,895.50757,711.23724,1124.208,720.3534,
1748958313.1652696,850.5463,715.5741,1450.0,1450.0,
1748958313.1691697,714.15796,690.7923,770.0055,1124.031,
1748958313.1730697,682.9152,671.40936,0.0,262.2444,
1748958313.1769700,777.086,682.9152,78.15113,0.0,
1748958313.1808701,896.2156,699.2004,1024.0188,668.5772,
1748958313.1847703,870.1947,702.82916,1450.0,1450.0,
1748958313.1886704,731.77075,695.3061,925.59973,1393.002,
1748958313.1925704,661.23114,680.9681,0.0,541.92456,
1748958313.1964707,727.78796,683.0922,36.995667,0.0,
1748958313.2003708,864.88434,700.17395,1036.7637,645.65405,
1748958313.2042708,876.03613,710.0867,1450.0,1447.4333,
1748958313.2081711,748.1444,704.5993,1014.63715,1437.0781,
1748958313.2120712,664.32886,680.7026,92.40066,689.11066,
1748958313.2159712,723.0086,672.914,0.0,0.0,
1748958313.2198715,846.298,705.3958,817.0024,421.55588,
1748958313.2237716,882.93964,723.6282,1450.0,1339.5441,
1748958313.2276716,761.8629,706.72345,1177.9314,1450.0,
1748958313.2315719,627.95276,689.5532,251.35811,940.9113,
1748958313.2354720,692.1199,690.2612,0.0,0.0,
1748958313.2393720,840.5451,714.06946,677.4278,284.725,
1748958313.2432723,879.22235,723.3626,1450.0,1284.139,
1748958313.2471724,770.97906,704.24524,1341.6682,1450.0,
1748958313.2510726,657.33685,688.57965,373.58542,949.67346,
1748958313.2549727,688.1371,686.18994,0.0,25.843863,
1748958313.2588727,825.853,708.6706,540.4199,195.51059,
1748958313.2627730,896.2156,724.77875,1450.0,1145.5381,
1748958313.2666731,793.8137,714.7775,1412.6503,1450.0,
1748958313.2705731,656.4518,700.705,418.10413,1082.256,
1748958313.2744734,670.4358,693.27045,0.0,123.28938,
1748958313.2783735,799.3011,705.7499,710.79474,95.409874,
1748958313.2822735,868.42456,724.4247,1450.0,1093.2308,
1748958313.2861738,787.7953,721.85803,1423.4481,1450.0,
1748958313.2900739,658.6645,706.63495,558.2982,1179.7015,
1748958313.2939739,647.9552,695.3946,0.0,294.81476,
1748958313.2978742,763.63306,709.99817,330.12878,0.3540255,
1748958313.3017743,846.121,735.488,1296.7954,934.3618,
1748958313.3056743,790.36194,735.2225,1450.0,1450.0,
1748958313.3095746,670.3473,712.3878,759.2077,1043.1362,
1748958313.3134747,622.46533,692.4739,0.0,184.4473,
1748958313.3173749,715.30853,705.9269,193.12091,0.0,
1748958313.3212750,850.6348,738.1432,1189.8798,818.861,
1748958313.3251750,811.9575,737.9662,1450.0,1450.0,
1748958313.3290753,655.7438,721.85803,844.8819,1323.7014,
1748958313.3329754,609.3664,706.72345,0.0,430.141,
1748958313.3368754,721.32697,710.4407,109.039856,0.0,
1748958313.3407757,842.2267,741.772,1122.8804,796.20337,
1748958313.3446758,814.17017,746.46277,1450.0,1450.0,
1748958313.3485758,684.95087,726.1063,909.049,1402.295,
1748958313.3524761,616.4469,706.0154,0.0,464.924,
1748958313.3563762,691.67737,722.5661,737.7892,264.63406,
1748958313.3602762,834.0841,755.1364,1450.0,1133.4127,
1748958313.3641765,843.5543,740.7099,1447.5219,1158.637,
1748958313.3680766,701.5016,723.8937,943.03546,1296.8839,
1748958313.3719766,613.52625,708.6706,44.341694,649.72534,
1748958313.3758769,686.544,706.1039,0.0,0.0,
1748958313.3797770,811.869,732.12476,720.88446,351.0163,
1748958313.3836772,832.22546,741.0639,1450.0,1286.5287,
1748958313.3875773,725.39825,725.13275,1199.7925,1450.0,
1748958313.3914773,603.879,709.82117,186.48294,512.4519,
1748958313.3953776,638.92755,714.24646,0.0,0.0,
1748958313.3992777,798.5931,743.01105,718.5833,865.41534,
1748958313.4031777,840.01404,747.7904,1450.0,1450.0,
1748958313.4070780,723.6282,724.69025,1157.6635,1355.8292,
1748958313.4109781,604.056,709.1131,157.18733,433.85828,
1748958313.4148781,646.00806,709.64417,0.0,0.0,
1748958313.4187784,778.94464,726.6374,727.61096,614.14575,
1748958313.4226785,825.853,741.5065,1450.0,1450.0,
1748958313.4265785,731.1512,725.6638,1254.4009,1404.0652,
1748958313.4304788,626.0941,701.3245,288.5308,475.45627,
1748958313.4343789,647.0701,704.42224,0.0,0.0,
1748958313.4382789,770.80206,727.0799,513.4255,449.3469,
1748958313.4421792,839.83704,745.66626,1437.0781,1410.5261,
1748958313.4460793,763.102,743.7191,1399.5514,1450.0,
1748958313.4499795,637.8655,724.1592,571.6627,612.8182,
1748958313.4538796,636.18384,713.4499,0.0,0.0,
1748958313.4577796,751.7732,731.68225,338.80243,293.39865,
1748958313.4616799,826.5611,749.64905,1380.3455,1338.1279,
1748958313.4655800,782.48486,733.6294,1320.8691,1334.3221,
1748958313.4694800,643.8839,715.48553,423.149,490.85638,
1748958313.4733803,620.60675,715.22003,0.0,0.0,
1748958313.4772804,740.5329,727.61096,254.36732,204.0957,
1748958313.4811804,826.9151,736.19604,1268.1194,1228.4685,
1748958313.4850807,792.4861,723.8052,1450.0,1450.0,
1748958313.4889808,668.48865,701.8556,650.8759,751.4191,
1748958313.4928808,612.4641,679.19794,0.0,0.0,
1748958313.4967811,723.7167,679.46344,362.0796,111.25252,
1748958313.5006812,852.0509,707.43146,1273.5183,1105.4447,
1748958313.5045812,831.3404,705.3958,1450.0,1450.0,
1748958313.5084815,699.1119,677.1623,770.0055,882.14307,
1748958313.5123816,631.139,654.5047,0.0,0.0,
1748958313.5162818,730.5317,668.48865,78.41665,27.082952,
1748958313.5201819,846.65204,707.34296,1010.3888,976.9334,
1748958313.5240819,819.9231,705.3958,1450.0,1450.0,
1748958313.5279822,711.6798,681.4991,1087.1239,1076.9456,
1748958313.5318823,634.2367,678.48987,99.038635,107.35824,
1748958313.5357823,687.6061,689.28766,0.0,0.0,
1748958313.5396826,812.9311,713.1844,883.9132,849.2187,
1748958313.5435827,836.6508,712.3878,1450.0,1450.0,
1748958313.5474827,731.50525,695.3946,1048.6235,1115.7114,
1748958313.5513830,641.2287,688.84515,82.93047,157.98389,
1748958313.5552831,668.6657,694.067,0.0,0.0,
1748958313.5591831,784.255,715.5741,866.4774,707.697,
1748958313.5630834,858.5119,728.23047,1450.0,1450.0,
1748958313.5669835,748.4984,713.4499,1131.1116,1245.0193,
1748958313.5708835,628.30676,692.2969,180.11047,272.2456,
1748958313.5747838,674.77264,687.252,0.0,0.0,
1748958313.5786839,792.84015,710.97174,648.57477,571.7512,
1748958313.5825841,843.20026,724.51324,1450.0,1450.0,
1748958313.5864842,756.64105,707.9625,1283.254,1345.2085,
1748958313.5903842,638.131,692.56244,397.0396,427.92834,
1748958313.5942845,627.3332,691.4118,0.0,0.0,
1748958313.5981846,758.32263,713.0959,478.554,425.62717,
1748958313.6020846,861.43256,734.60297,1450.0,1434.5999,
1748958313.6059849,785.93665,730.9742,1433.0953,1431.9447,
1748958313.6098850,650.16785,699.0234,433.1502,414.74088,
1748958313.6137850,641.4942,693.89,0.0,0.0,
1748958313.6176853,761.7744,719.6454,387.92346,346.945,
1748958313.6215854,847.09454,730.1776,1358.6614,1339.8981,
1748958313.6254854,791.3355,719.7339,1450.0,1450.0,
1748958313.6293857,667.0726,698.4923,560.5109,589.36395,
1748958313.6332858,633.0861,692.3854,0.0,0.0,
1748958313.6371858,735.0455,712.3878,579.9823,206.7509,
1748958313.6410861,830.3668,739.47076,1412.4733,1227.4065,
1748958313.6449862,807.6207,733.2753,1450.0,1450.0,
1748958313.6488864,672.20593,711.5913,712.3878,672.56,
1748958313.6527865,616.4469,699.90845,0.0,0.0,
1748958313.6566865,724.2477,713.89246,190.55423,91.86962,
1748958313.6605868,834.7922,740.35583,1175.3647,1071.4583,
1748958313.6644869,815.14374,742.303,1450.0,1450.0,
1748958313.6683869,687.9601,715.39703,830.8979,763.1905,
1748958313.6722872,630.8735,697.34174,0.0,0.0,
1748958313.6761873,714.24646,708.7591,84.52359,38.765793,
1748958313.6800873,828.4197,732.8328,1046.0569,963.923,
1748958313.6839876,824.70245,728.67303,1450.0,1450.0,
1748958313.6878877,700.43945,712.4763,992.86456,984.1909,
1748958313.6917877,616.0044,704.5108,30.977232,54.96246,
1748958313.6956880,686.898,716.1936,23.365685,0.0,
1748958313.6995881,820.3656,742.48,1038.1798,928.60895,
1748958313.7034881,836.03125,748.4984,1450.0,1450.0,
1748958313.7073884,721.76953,726.8144,1035.0822,1107.4803,
1748958313.7112885,624.147,707.16595,114.261734,165.15291,
1748958313.7151887,658.93,705.1303,0.0,0.0,
1748958313.7190888,789.03436,729.29254,808.32874,742.56854,
1748958313.7229888,834.9692,744.2501,1450.0,1450.0,
1748958313.7268891,728.496,731.94775,1188.3751,1270.863,
1748958313.7307892,620.96075,709.3786,281.5388,338.97943,
1748958313.7346892,658.576,708.1395,0.0,0.0,
1748958313.7385895,774.60785,728.496,639.10455,601.8434,
1748958313.7424896,821.87024,736.9041,1450.0,1450.0,
1748958313.7463896,725.7523,723.2741,1345.7395,1347.1556,
1748958313.7502899,628.04126,710.97174,378.36478,396.9511,
1748958313.7541900,651.3184,712.4763,0.0,0.0,
1748958313.7580900,770.3595,732.21326,507.40707,471.65048,
1748958313.7619903,851.25433,746.37427,1450.0,1436.016,
1748958313.7658904,774.96185,731.59375,1392.0283,1426.5458,
1748958313.7697904,648.1322,712.2108,397.48215,500.41507,
1748958313.7736907,647.33563,706.1039,0.0,0.0,
1748958313.7775908,763.279,727.96497,678.93243,415.80298,
1748958313.7814910,848.2451,751.4191,1450.0,1377.5133,
1748958313.7853911,783.19293,747.6134,1414.5974,1450.0,
1748958313.7892911,663.62085,728.14197,546.9694,636.6264,
1748958313.7931914,632.9976,711.06024,0.0,0.0,
1748958313.7970915,733.0098,726.4603,292.8676,234.63042,
1748958313.8009915,840.9876,747.7904,1266.9688,1238.5582,
1748958313.8048918,796.91144,746.63983,1450.0,1450.0,
1748958313.8087919,655.3012,727.61096,767.0848,763.81006,
1748958313.8126919,600.9583,704.8648,0.0,0.0,
1748958313.8165922,702.3866,723.2741,166.21498,140.45963,
1748958313.8204923,808.5943,752.92377,1166.16,1137.838,
1748958313.8243923,778.4136,740.9754,1450.0,1450.0,
1748958313.8282926,648.8403,720.3534,837.3588,898.0742,
1748958313.8321927,575.37994,709.82117,0.0,0.0,
1748958313.8360927,676.6313,713.0959,83.727036,50.62565,
1748958313.8399930,812.8426,738.4087,1093.8503,1052.4293,
1748958313.8438931,811.692,752.3927,1450.0,1450.0,
1748958313.8477933,689.28766,733.8064,884.7983,1016.4957,
1748958313.8516934,610.33997,710.70624,0.0,0.0,
1748958313.8555934,667.95764,730.2661,709.64417,471.56198,
1748958313.8594937,810.0104,762.1284,1450.0,1393.887,
1748958313.8633938,837.7129,744.1616,1450.0,1450.0,
1748958313.8672938,688.57965,722.38904,917.81116,964.1885,
1748958313.8711941,602.1974,711.32574,46.64286,90.80754,
1748958313.8750942,682.8267,714.7775,0.0,0.0,
1748958313.8789942,817.53345,738.58575,675.8347,663.62085,
1748958313.8828945,846.475,749.82605,1450.0,1450.0,
1748958313.8867946,732.9213,731.85925,1209.4397,1198.3763,
1748958313.8906946,618.21704,710.61774,215.60153,224.09814,
1748958313.8945949,653.26556,709.99817,0.0,0.0,
1748958313.8984950,785.1401,733.7179,574.4949,575.20294,
1748958313.9023950,840.10254,743.9846,1450.0,1450.0,
1748958313.9062953,745.3122,728.14197,1251.1262,1316.7979,
1748958313.9101954,602.55145,712.8304,233.47983,346.23694,
1748958313.9140956,627.68726,709.82117,0.0,0.0,
1748958313.9179957,776.909,722.21204,603.9675,442.7089,
1748958313.9218957,837.4473,736.28455,1450.0,1397.7812,
1748958313.9257960,751.7732,733.8064,1329.5428,1439.3793,
1748958313.9296961,624.2355,714.24646,362.0796,504.30936,
1748958313.9335961,613.96875,701.3245,0.0,0.0,
1748958313.9374964,744.9582,719.4683,389.69357,363.23016,
1748958313.9413965,839.66003,741.772,1353.7936,1347.4211,
1748958313.9452965,779.03314,739.8248,1450.0,1450.0,
1748958313.9491968,642.91034,714.9545,680.3485,705.6614,
1748958313.9530969,596.35596,701.5901,0.0,0.0,
1748958313.9569969,715.13153,725.30975,215.95557,207.01642,
1748958313.9608972,824.1714,754.9594,1275.908,1262.1895,
1748958313.9647973,778.3251,742.3915,1405.4813,1406.0123,
1748958313.9686973,653.17706,719.5569,525.37384,585.46967,
1748958313.9725976,594.1433,715.39703,0.0,0.0,
1748958313.9764977,696.19116,725.30975,168.25063,131.52048,
1748958313.9803979,810.0989,743.36505,1176.4268,1144.83,
1748958313.9842980,783.0159,739.7363,1450.0,1450.0,
1748958313.9881980,670.96686,730.9742,776.2894,854.35205,
1748958313.9920983,602.0204,724.60175,0.0,0.0,
1748958313.9959984,686.18994,722.47754,208.34401,36.818653,
1748958313.9998984,824.3484,736.7271,1144.2104,1004.28186,
1748958314.0037987,801.6908,749.3835,1450.0,1450.0,
1748958314.0076988,657.7794,744.6927,892.85236,961.17926,
1748958314.0115988,588.4789,732.39026,20.799,56.909603,
1748958314.0154991,658.4874,747.34784,2.3896723,0.0,
1748958314.0193992,773.9883,780.0067,892.94086,850.28076,
1748958314.0232992,779.9182,778.76764,1450.0,1450.0,
1748958314.0271995,662.6473,762.8365,1162.3542,1112.8792,
1748958314.0310996,572.9903,751.4191,174.62308,153.82408,
1748958314.0349996,638.83905,752.3927,0.0,0.0,
1748958314.0388999,788.94586,776.732,745.84326,681.76465,
1748958314.0427999,800.36316,773.3687,1450.0,1450.0,
1748958314.0467002,686.18994,754.6939,1161.7347,1122.6149,
1748958314.0506003,607.5963,751.3306,161.25862,167.80809,
1748958314.0545003,634.50226,752.0387,0.0,0.0,
1748958314.0584006,754.7824,764.87213,754.07434,513.69104,
1748958314.0623007,817.0024,778.4136,1450.0,1450.0,
1748958314.0662007,724.2477,763.102,1237.5847,1269.27,
1748958314.0701010,600.42725,738.76276,275.9629,281.98132,
1748958314.0740011,627.86426,728.93854,0.0,0.0,
1748958314.0779011,754.8709,743.18805,535.02106,421.73288,
1748958314.0818014,817.53345,768.5009,1449.9115,1416.81,
1748958314.0857015,753.89734,762.0399,1386.8949,1391.7628,
1748958314.0896015,632.5551,737.8777,553.7844,472.71255,
1748958314.0935018,619.1906,730.1776,0.0,0.0,
1748958314.0974019,738.4087,758.23413,390.84418,333.93457,
1748958314.1013019,823.2863,781.2458,1351.1384,1300.8667,
1748958314.1052022,771.77563,777.263,1450.0,1450.0,
1748958314.1091022,640.3436,766.6423,1351.0499,1273.8723,
1748958314.1130025,598.65717,750.6226,659.0185,338.3599,
1748958314.1169026,699.99695,744.2501,208.07849,31.685284,
1748958314.1208026,793.9022,762.2169,1178.2854,1171.4705,
1748958314.1247029,743.6306,780.2722,1450.0,1450.0,
1748958314.1286030,608.2158,772.5722,413.76733,518.20483,
1748958314.1325030,555.64307,761.33185,0.0,0.0,
1748958314.1364033,648.9288,776.6435,167.36555,99.038635,
1748958314.1403034,755.756,807.8862,1119.2517,1071.3698,
1748958314.1442034,729.29254,816.2943,1450.0,1450.0,
1748958314.1481037,601.4893,802.0448,568.742,740.09033,
1748958314.1520038,538.64984,774.0768,0.0,0.0,
1748958314.1559038,619.2791,773.2802,48.501495,16.993225,
1748958314.1598041,710.4407,807.08966,930.6446,933.5653,
1748958314.1637042,726.1063,812.9311,1450.0,1450.0,
1748958314.1676042,634.85626,779.8297,842.3152,822.31274,
1748958314.1715045,548.3855,759.2077,0.0,0.0,
1748958314.1754045,599.89624,759.7388,0.0,0.0,
1748958314.1793048,749.295,783.28143,848.8647,826.38403,
1748958314.1832049,788.50336,781.95386,1450.0,1450.0,
1748958314.1871049,672.914,748.4099,1060.8374,1080.3088,
1748958314.1910052,584.4961,736.28455,79.832756,120.63419,
1748958314.1949053,633.5287,736.46155,0.0,0.0,
1748958314.1988053,786.5562,751.0651,941.8849,824.2599,
1748958314.2027056,843.9083,754.9594,1450.0,1450.0,
1748958314.2066057,744.9582,740.00183,1147.6622,1225.1053,
1748958314.2105057,638.75055,720.88446,207.72447,269.59042,
1748958314.2144060,672.8255,706.63495,0.0,0.0,
1748958314.2183061,797.7965,728.319,705.3073,651.938,
1748958314.2222061,869.7522,752.74677,1450.0,1450.0,
1748958314.2261064,796.3804,741.5065,1335.1188,1394.595,
1748958314.2300065,675.12665,716.3706,488.2897,518.9129,
1748958314.2339065,689.46466,701.059,0.0,0.0,
1748958314.2378068,807.44366,723.1856,560.42236,552.2798,
1748958314.2417068,874.266,743.27655,1450.0,1450.0,
1748958314.2456071,801.8678,724.1592,1436.193,1450.0,
1748958314.2495072,687.8716,705.7499,547.943,634.50226,
1748958314.2534072,682.47266,697.7843,0.0,0.0,
1748958314.2573075,803.54944,715.48553,172.67595,220.29237,
1748958314.2612076,892.58685,728.76154,1200.6775,1248.648,
1748958314.2651076,827.4461,712.6534,1450.0,1450.0,
1748958314.2690079,708.405,695.4831,595.73645,733.5409,
1748958314.2729080,645.74255,682.8267,0.0,0.0,
1748958314.2768080,749.295,689.5532,611.13654,333.84607,
1748958314.2807083,890.02014,717.78674,1430.6171,1321.5773,
1748958314.2846084,846.3865,712.2993,1450.0,1450.0,
1748958314.2885084,698.3153,690.7923,759.56177,800.09766,
1748958314.2924087,647.33563,678.22437,0.0,0.0,
1748958314.2963088,770.1825,693.536,228.08093,153.82408,
1748958314.3002088,867.451,722.47754,1217.2283,1168.0187,
1748958314.3041091,824.0829,720.53046,1450.0,1450.0,
1748958314.3080091,718.05225,698.2268,884.2672,851.8739,
1748958314.3119092,653.00006,679.9945,0.0,0.0,
1748958314.3158095,734.51447,690.43823,111.07551,98.06507,
1748958314.3197095,864.79584,726.0178,1095.2665,1080.7513,
1748958314.3236098,846.74054,731.3282,1450.0,1450.0,
1748958314.3275099,747.43634,708.6706,1035.5247,1147.7507,
1748958314.3314099,664.24036,681.85315,49.12104,125.14802,
1748958314.3353102,703.27167,695.92566,29.29561,8.142587,
1748958314.3392103,851.6969,726.0178,1053.3145,1056.0581,
1748958314.3431103,864.2648,727.0799,1450.0,1450.0,
1748958314.3470106,735.57654,714.6005,1082.079,1274.4033,
1748958314.3509107,638.308,693.35895,33.366905,189.40366,
1748958314.3548107,688.66815,708.4935,618.04004,483.77588,
1748958314.3587110,816.3828,742.92255,1450.0,1449.7345,
1748958314.3626111,865.6809,727.87646,1450.0,1450.0,
1748958314.3665111,764.7836,708.6706,1074.6444,1275.908,
1748958314.3704114,643.9724,699.73145,161.78966,335.08514,
1748958314.3743114,675.30365,704.7763,0.0,0.0,
1748958314.3782115,803.72644,731.2397,537.4107,678.04736,
1748958314.3821118,854.17505,738.3202,1450.0,1450.0,
1748958314.3860118,768.23535,709.64417,1302.2828,1384.7708,
1748958314.3899121,652.82306,697.16473,302.78033,456.86993,
1748958314.3938122,662.0277,711.5913,0.0,0.0,
1748958314.3977122,769.6515,730.7087,459.3481,581.3099,
1748958314.4016125,839.74854,747.25934,1433.4493,1450.0,
1748958314.4055126,787.4412,736.01904,1391.4088,1450.0,
1748958314.4094126,651.3184,713.3614,393.49936,610.07446,
1748958314.4133129,615.2963,711.8568,0.0,0.0,
1748958314.4172130,745.84326,717.96375,530.1532,425.71567,
1748958314.4211130,854.8831,735.311,1386.6294,1358.7499,
1748958314.4250133,797.08844,737.6122,1450.0,1450.0,
1748958314.4289134,666.1875,711.7683,582.9915,731.2397,
1748958314.4328134,643.6184,702.3866,0.0,0.0,
1748958314.4367137,756.0215,722.12354,374.02795,326.32303,
1748958314.4406137,852.1394,749.64905,1307.7703,1308.3898,
1748958314.4445138,827.4461,747.17084,1450.0,1450.0,
1748958314.4484141,685.92444,716.4591,1019.7705,948.6114,
1748958314.4523141,611.04803,703.09467,0.0,0.0,
1748958314.4562144,717.69824,721.681,190.46573,144.88495,
1748958314.4601145,855.8567,743.01105,1274.0493,1238.8237,
1748958314.4640145,831.78296,736.19604,1446.7252,1411.6768,
1748958314.4679148,685.3049,717.69824,739.38226,642.82184,
1748958314.4718149,628.30676,712.1223,0.0,0.0,
1748958314.4757149,717.78674,722.7431,115.76634,47.350914,
1748958314.4796152,829.9243,742.303,1127.8368,1050.4822,
1748958314.4835153,838.95197,741.5065,1450.0,1450.0,
1748958314.4874153,713.0959,714.512,1008.8842,822.7553,
1748958314.4913156,588.74445,703.27167,43.98767,16.10816,
1748958314.4952157,679.552,714.866,129.13081,0.0,
1748958314.4991157,819.7461,736.5501,1081.548,804.34595,
1748958314.5030160,824.87946,748.941,1450.0,1450.0,
1748958314.5069160,721.23846,728.85004,1077.8307,783.9895,
1748958314.5108161,624.50104,704.5108,142.9378,15.223097,
1748958314.5147164,672.11743,708.3165,0.0,0.0,
1748958314.5186164,805.4965,731.59375,805.231,565.4672,
1748958314.5225167,845.50146,747.43634,1450.0,1450.0,
1748958314.5264168,742.92255,722.6546,1088.8054,890.7282,
1748958314.5303168,608.4813,698.8464,153.73558,6.3724594,
1748958314.5342171,655.4782,712.4763,0.0,0.0,
1748958314.5381172,803.90344,738.4087,720.97296,554.40393,
1748958314.5420172,853.0245,749.3835,1450.0,1450.0,
1748958314.5459175,765.31464,731.4167,1376.2742,1288.9183,
1748958314.5498176,647.6897,707.7855,398.1902,291.717,
1748958314.5537176,652.292,708.051,0.0,0.0,
1748958314.5576179,773.5458,730.5317,852.1394,673.7991,
1748958314.5615180,840.10254,752.56976,1450.0,1450.0,
1748958314.5654180,758.6767,747.8789,1399.1089,1450.0,
1748958314.5693183,651.761,727.78796,565.2017,602.90546,
1748958314.5732183,642.02527,708.228,0.0,0.0,
1748958314.5771184,742.74554,726.7259,542.89813,559.4488,
1748958314.5810187,844.7934,757.26056,1401.41,1417.6067,
1748958314.5849187,774.87335,742.2145,1450.0,1450.0,
1748958314.5888190,644.1494,721.23846,962.7724,990.12085,
1748958314.5927191,635.12177,719.2913,0.0,0.0,
1748958314.5966191,731.59375,733.5409,332.69547,437.133,
1748958314.6005194,841.0761,748.2329,1349.9878,1405.2158,
1748958314.6044195,806.91266,730.0006,1450.0,1450.0,
1748958314.6083195,669.7278,718.05225,851.9624,1045.3489,
1748958314.6122198,628.92633,717.0787,0.0,27.436977,
1748958314.6161199,717.52124,721.94653,30.092169,69.74303,
1748958314.6200199,824.52545,741.6835,1008.8842,1125.4471,
1748958314.6239202,817.97595,738.2317,1450.0,1450.0,
1748958314.6278203,706.3694,727.96497,1006.9371,1223.6007,
1748958314.6317203,641.3172,719.9994,8.05408,159.66551,
1748958314.6356206,720.0879,711.7683,415.89148,316.4103,
1748958314.6395206,833.02203,735.2225,1336.0038,1340.1636,
1748958314.6434207,834.7922,744.5157,1450.0,1450.0,
1748958314.6473210,712.3878,719.3798,1101.8159,1243.8687,
1748958314.6512210,599.01117,706.81195,105.67661,202.67961,
1748958314.6551213,664.7714,721.32697,33.01288,25.40133,
1748958314.6590214,814.25867,748.4099,1037.9143,1098.0101,
1748958314.6629214,833.28754,752.56976,1450.0,1450.0,
1748958314.6668217,713.71545,721.681,1040.7465,1060.5719,
1748958314.6707218,622.1113,698.2268,100.63175,117.62498,
1748958314.6746218,680.5256,705.1303,0.0,0.0,
1748958314.6785221,794.4332,741.3294,855.5912,920.2008,
1748958314.6824222,810.4529,757.9686,1450.0,1450.0,
1748958314.6863222,708.4935,737.8777,1270.0665,1302.9908,
1748958314.6902225,610.25146,716.54767,264.19153,328.09314,
1748958314.6941226,651.3184,711.5028,0.0,0.0,
1748958314.6980226,766.0227,728.93854,904.35815,793.9022,
1748958314.7019229,831.78296,746.55133,1450.0,1450.0,
1748958314.7058229,753.10077,740.35583,1300.6897,1294.6713,
1748958314.7097230,629.7229,728.93854,386.68436,355.79565,
1748958314.7136233,623.79297,705.3958,0.0,0.0,
1748958314.7175233,745.1352,716.1051,605.4721,539.8004,
1748958314.7214236,838.50946,749.0295,1450.0,1450.0,
1748958314.7253237,761.6859,730.9742,1432.7412,1420.3503,
1748958314.7292237,632.9091,696.89923,677.95886,543.34064,
1748958314.7331240,626.1826,701.413,0.0,0.0,
1748958314.7370241,741.3294,728.85004,413.5018,371.10724,
1748958314.7409241,835.58875,739.11676,1402.295,1397.2502,
1748958314.7448244,794.6988,728.58453,1450.0,1437.3436,
1748958314.7487245,656.54034,712.1223,623.2619,485.2805,
1748958314.7526245,617.4205,701.1475,0.0,0.0,
1748958314.7565248,734.69147,719.5569,236.22353,161.96667,
1748958314.7604249,840.36804,739.7363,1259.2688,1222.0076,
1748958314.7643249,799.3011,732.12476,1450.0,1436.9895,
1748958314.7682252,670.3473,717.0787,603.702,385.88782,
1748958314.7721252,622.9964,706.98895,0.0,0.0,
1748958314.7760253,703.18317,713.0959,342.6082,32.21632,
1748958314.7799256,817.97595,731.3282,1260.9503,1005.0784,
1748958314.7838256,806.1161,737.3466,1450.0,1450.0,
1748958314.7877259,684.3313,720.0879,697.5188,385.7108,
1748958314.7916260,600.6928,695.3061,0.0,0.0,
1748958314.7955260,670.70135,715.8396,50.979675,0.0,
1748958314.7994263,795.93787,747.7904,957.72754,783.45844,
1748958314.8033264,806.0276,740.35583,1450.0,1450.0,
1748958314.8072264,695.2176,716.0166,858.6004,535.10956,
1748958314.8111267,602.81696,703.00616,0.0,0.0,
1748958314.8150268,670.96686,712.6534,0.0,0.0,
1748958314.8189268,793.01715,741.3294,819.215,649.63684,
1748958314.8228271,809.1253,742.126,1450.0,1450.0,
1748958314.8267272,696.98773,719.8224,1021.62915,680.26,
1748958314.8306272,600.7813,708.405,63.54758,0.0,
1748958314.8345275,656.0978,707.25446,0.0,0.0,
1748958314.8384275,786.02515,722.5661,898.7823,628.12976,
1748958314.8423276,836.8278,745.0467,1450.0,1450.0,
1748958314.8462279,736.10754,739.8248,1146.2461,848.4221,
1748958314.8501279,606.0032,716.1936,72.04419,0.0,
1748958314.8540282,647.24713,724.86725,499.08746,12.656412,
1748958314.8579283,805.8506,755.933,1439.0253,937.6366,
1748958314.8618283,834.5267,748.4984,1450.0,1426.2803,
1748958314.8657286,730.3546,728.319,1161.9117,692.82794,
1748958314.8696287,636.9804,713.53845,294.28372,76.91204,
1748958314.8735287,639.6356,705.9269,0.0,0.0,
1748958314.8774290,756.99506,734.1604,466.25162,358.0083,
1748958314.8813291,840.19104,755.1364,1429.378,1416.5446,
1748958314.8852291,768.6779,735.0455,1437.7861,1365.742,
1748958314.8891294,642.3793,716.63617,498.46793,367.12445,
1748958314.8930295,617.332,713.0959,0.0,0.0,
1748958314.8969295,737.4351,733.0983,446.24915,451.0285,
1748958314.9008298,842.0497,752.56976,1384.3282,1378.0443,
1748958314.9047298,773.6343,737.1696,1450.0,1450.0,
1748958314.9086299,639.9011,719.5569,654.6817,786.7332,
1748958314.9125302,612.9067,718.8488,0.0,0.0,
1748958314.9164302,712.8304,721.681,513.95654,421.37888,
1748958314.9203305,828.4197,736.8156,1356.7142,1341.4027,
1748958314.9242306,790.6275,748.0559,1450.0,1450.0,
1748958314.9281306,648.4862,737.8777,850.7233,1022.07166,
1748958314.9320309,620.96075,718.22925,0.0,0.0,
1748958314.9359310,725.48676,727.2569,295.4343,288.97333,
1748958314.9398310,840.27954,754.33984,1275.554,1317.5945,
1748958314.9437313,819.8346,753.72034,1450.0,1450.0,
1748958314.9476314,687.7831,723.7167,1155.4508,1114.7378,
1748958314.9515314,635.56433,702.3866,90.01099,58.856743,
1748958314.9554317,699.81995,719.2028,107.09272,107.18122,
1748958314.9593318,814.70123,754.25134,1166.514,1170.8508,
1748958314.9632318,838.2439,753.4548,1450.0,1450.0,
1748958314.9671321,698.4923,733.7179,1105.2677,1090.0446,
1748958314.9710321,619.1021,719.1143,89.21443,86.73625,
1748958314.9749322,693.27045,714.866,37.349693,7.9655743,
1748958314.9788325,809.5679,738.4087,1080.4858,1032.9579,
1748958314.9827325,828.59674,749.91455,1450.0,1450.0,
1748958314.9866328,714.9545,729.11554,1153.5922,1151.468,
1748958314.9905329,605.3836,706.98895,162.49771,168.33913,
1748958314.9944329,646.36206,711.9453,15.40011,0.0,
1748958314.9983332,789.03436,733.7179,973.8357,880.55,
1748958315.0022333,842.1382,740.5329,1450.0,1450.0,
1748958315.0061333,720.0879,725.8408,1254.5779,1332.906,
1748958315.0100336,595.4709,704.33374,364.38077,385.44528,
1748958315.0139337,635.65283,709.0246,0.0,0.0,
1748958315.0178337,756.90656,737.7007,720.2649,891.6133,
1748958315.0217340,816.9139,749.295,1450.0,1450.0,
1748958315.0256341,739.29376,729.5581,1403.4457,1450.0,
1748958315.0295341,619.8987,714.9545,484.92645,784.9631,
1748958315.0334344,628.39526,714.42346,0.0,92.666176,
1748958315.0373344,758.1456,729.29254,628.12976,1083.2296,
1748958315.0412345,843.11176,752.83527,1450.0,1450.0,
1748958315.0451348,771.95264,745.4892,1450.0,1450.0,
1748958315.0490348,636.5379,724.95575,579.8938,1285.2897,
1748958315.0529351,622.8194,722.30054,0.0,960.2057,
1748958315.0568352,740.44434,742.48,690.8808,1349.1028,
1748958315.0607352,817.62195,765.22614,1446.4597,1450.0,
1748958315.0646355,756.11,760.71234,1450.0,1429.4666,
1748958315.0685356,623.2619,736.01904,783.36993,1448.5839,
1748958315.0724356,580.69037,726.7259,0.0,1410.2606,
1748958315.0763359,686.9865,756.64105,444.125,1439.5563,
1748958315.0802360,792.92865,786.6447,1363.7948,1441.0609,
1748958315.0841360,740.44434,773.4572,1450.0,1450.0,
1748958315.0880363,599.80774,749.82605,1084.3801,1437.0781,
1748958315.0919363,555.2005,766.2882,12.921931,1055.3501,
1748958315.0958364,640.8747,800.27466,218.25673,1210.8557,
1748958315.0997367,740.35583,825.853,1304.938,1450.0,
1748958315.1036367,720.79596,837.7129,1450.0,1398.9318,
1748958315.1075368,578.38916,832.668,1438.1401,1450.0,
1748958315.1114371,474.92523,824.96796,976.9334,1190.1453,
1748958315.1153371,550.8637,817.2679,181.52658,365.97388,
1748958315.1192374,691.8544,830.8979,940.6458,989.94385,
1748958315.1231375,694.8636,849.57275,1450.0,1450.0,
1748958315.1270375,571.8397,841.3416,647.0701,735.311,
1748958315.1309378,492.361,821.78174,0.0,0.44253188,
1748958315.1348379,556.70514,819.215,0.0,0.0,
1748958315.1387379,693.89,848.2451,730.0006,728.67303,
1748958315.1426382,738.0547,852.3164,1450.0,1450.0,
1748958315.1465383,621.7573,822.8438,814.96674,619.7217,
1748958315.1504383,528.9141,798.6816,12.036867,0.0,
1748958315.1543386,606.1802,799.1241,0.0,0.0,
1748958315.1582386,739.20526,814.08167,554.3154,270.20996,
1748958315.1621387,775.8469,819.6576,1450.0,993.4841,
1748958315.1660390,685.83594,796.11487,973.9242,369.42563,
1748958315.1699390,587.4168,768.9434,42.571568,0.0,
1748958315.1738391,622.5539,770.53656,0.0,0.0,
1748958315.1777394,768.05835,788.3263,441.46982,90.89605,
1748958315.1816394,832.04846,788.59186,1450.0,731.3282,
1748958315.1855397,749.2065,764.87213,1192.1809,309.3298,
1748958315.1894398,631.0505,738.4972,161.70116,0.0,
1748958315.1933398,654.5932,732.7443,0.0,14.603553,
1748958315.1972401,788.2378,746.37427,658.3989,43.279617,
1748958315.2011402,863.82227,760.53534,1450.0,1031.2764,
1748958315.2050402,806.1161,745.93176,1319.0106,858.06934,
1748958315.2089405,678.13586,721.23846,385.53378,11.063297,
1748958315.2128406,655.3012,704.5993,0.0,0.0,
1748958315.2167406,779.03314,716.4591,438.90314,235.86949,
1748958315.2206409,881.081,748.0559,1366.3615,1314.0542,
1748958315.2245409,823.9059,735.311,1450.0,1421.0585,
1748958315.2284410,695.4831,700.43945,789.83093,426.95477,
1748958315.2323413,656.0978,694.244,0.0,0.0,
1748958315.2362413,747.25934,711.14874,189.31514,48.41299,
1748958315.2401414,862.3176,726.1948,1252.0997,1123.146,
1748958315.2440417,830.1013,715.48553,1450.0,1201.7396,
1748958315.2479417,676.8083,700.43945,571.30865,59.38778,
1748958315.2518420,638.0425,692.65094,0.0,0.0,
1748958315.2557421,748.6755,695.4831,54.608437,32.30483,
1748958315.2596421,867.80505,713.0959,1045.5259,165.59543,
1748958315.2635424,848.5107,716.8132,1450.0,179.84496,
1748958315.2674425,718.40625,700.9705,488.5552,0.0,
1748958315.2713425,640.9632,693.18195,0.0,11.063297,
1748958315.2752428,720.4419,697.6958,0.0,0.0,
1748958315.2791429,860.459,717.87524,796.4689,47.350914,
1748958315.2830429,862.3176,723.7167,1450.0,95.409874,
1748958315.2869432,717.4327,698.2268,593.16974,0.0,
1748958315.2908432,634.2367,677.95886,0.0,41.420986,
1748958315.2947433,709.55566,696.19116,0.0,0.0,
1748958315.2986436,846.3865,728.93854,655.5668,250.38455,
1748958315.3025436,862.3176,730.7972,1450.0,1088.1859,
1748958315.3064437,744.6042,700.528,971.53455,554.0499,
1748958315.3103440,654.41614,687.075,14.338034,0.0,
1748958315.3142440,701.413,693.8015,0.0,0.0,
1748958315.3181443,814.78973,717.69824,811.515,868.5131,
1748958315.3220444,839.3945,733.36383,1450.0,1450.0,
1748958315.3259444,755.4904,718.9373,1410.7031,1450.0,
1748958315.3298447,656.1863,703.18317,435.7169,1174.8336,
1748958315.3337448,671.23236,705.6614,0.0,1045.7914,
1748958315.3376448,788.76886,722.38904,1055.3501,1445.5747,
1748958315.3415451,864.08777,728.4075,1450.0,1450.0,
1748958315.3454452,769.74,710.79474,1450.0,1440.1758,
1748958315.3493452,621.8458,690.43823,553.6074,1440.1758,
1748958315.3532455,640.0781,707.52,613.61475,1430.7941,
1748958315.3571455,774.87335,734.86847,1450.0,1450.0,
1748958315.3610456,845.2359,724.1592,1413.9779,1403.2687,
1748958315.3649459,773.8998,713.89246,1397.7812,1450.0,
1748958315.3688459,652.82306,691.2348,635.82983,1115.2689,
1748958315.3727460,649.72534,679.46344,0.0,4.0712934,
1748958315.3766463,770.448,714.33496,289.9469,485.6345,
1748958315.3805463,844.8819,741.2409,1326.7106,1450.0,
1748958315.3844466,797.35394,728.14197,1450.0,1450.0,
1748958315.3883467,688.2256,705.6614,530.86127,684.95087,
1748958315.3922467,654.9472,696.8107,0.0,0.0,
1748958315.3961470,739.11676,712.4763,182.14613,159.75401,
1748958315.4000471,834.7037,727.52246,1205.6339,1225.9019,
1748958315.4039471,822.31274,726.3718,1450.0,1450.0,
1748958315.4078474,699.64294,715.7511,541.65906,468.8183,
1748958315.4117475,640.6977,702.65216,0.0,0.0,
1748958315.4156475,725.5753,707.16595,117.713486,8.762132,
1748958315.4195478,846.74054,728.67303,1035.1707,939.84924,
1748958315.4234478,821.78174,730.7972,1450.0,1450.0,
1748958315.4273479,677.69336,709.4671,560.6879,437.31003,
1748958315.4312482,596.887,694.1555,0.0,0.0,
1748958315.4351482,677.60486,709.4671,3.4517488,0.0,
1748958315.4390483,808.5058,730.0891,788.3263,740.9754,
1748958315.4429486,792.4861,721.94653,1450.0,1450.0,
1748958315.4468486,673.0025,714.33496,924.2721,773.7228,
1748958315.4507489,602.4629,709.82117,52.661297,0.0,
1748958315.4546490,650.9644,717.78674,0.0,0.0,
1748958315.4585490,782.8389,738.76276,691.67737,756.81805,
1748958315.4624493,815.14374,744.1616,1450.0,1450.0,
1748958315.4663494,695.0406,720.2649,966.2241,1157.575,
1748958315.4702494,620.1642,702.82916,35.40255,155.32869,
1748958315.4741497,670.0818,712.2108,0.0,0.0,
1748958315.4780498,800.27466,725.7523,873.1154,935.95496,
1748958315.4819498,852.4934,735.134,1450.0,1450.0,
1748958315.4858501,752.4812,725.8408,1205.2799,1429.201,
1748958315.4897501,637.1574,710.88324,243.56955,567.06036,
1748958315.4936502,656.3633,703.71423,0.0,0.0,
1748958315.4975505,788.4148,728.05347,795.4068,923.6526,
1748958315.5014505,860.90155,746.10876,1450.0,1450.0,
1748958315.5053506,755.6675,726.8144,1433.4493,1450.0,
1748958315.5092509,619.0136,700.26245,652.91156,917.98816,
1748958315.5131509,647.6897,695.1291,0.0,3.274736,
1748958315.5170510,772.21814,719.6454,713.3614,906.1283,
1748958315.5209513,827.4461,731.4167,1450.0,1450.0,
1748958315.5248513,770.448,709.4671,1450.0,1450.0,
1748958315.5287516,646.8931,695.4831,814.25867,1151.645,
1748958315.5326517,625.7401,703.53723,0.0,195.24507,
1748958315.5365517,745.0467,727.4339,564.22815,748.4984,
1748958315.5404520,828.95074,738.58575,1446.9022,1450.0,
1748958315.5443521,786.11365,720.3534,1450.0,1450.0,
1748958315.5482521,646.8931,703.62573,790.716,1078.0077,
1748958315.5521524,601.0468,699.3774,0.0,20.356466,
1748958315.5560524,734.957,713.2729,460.4987,309.4183,
1748958315.5599525,849.0417,736.10754,1350.6073,1322.4623,
1748958315.5638528,802.0448,734.1604,1450.0,1450.0,
1748958315.5677528,677.87036,714.689,725.7523,876.47864,
1748958315.5716529,628.6608,700.17395,0.0,0.0,
1748958315.5755532,694.244,715.7511,123.90893,65.93725,
1748958315.5794532,823.1978,746.19727,1090.487,1079.5123,
1748958315.5833533,817.1794,742.126,1450.0,1450.0,
1748958315.5872536,679.8175,712.3878,907.10187,773.4572,
1748958315.5911536,626.3596,697.8728,38.32326,1.0620766,
1748958315.5950539,696.10266,713.4499,0.0,0.0,
1748958315.5989540,803.72644,741.3294,861.07855,773.1917,
1748958315.6028540,820.98517,749.472,1450.0,1450.0,
1748958315.6067543,710.52924,738.0547,1417.0757,1284.9355,
1748958315.6106544,616.80096,721.06146,670.4358,348.3611,
1748958315.6145544,680.5256,700.528,0.0,0.0,
1748958315.6184547,801.5138,710.70624,527.321,432.53067,
1748958315.6223547,816.4713,737.8777,1450.0,1362.9982,
1748958315.6262548,714.6005,730.0891,690.6153,615.1193,
1748958315.6301551,599.01117,706.90045,0.0,0.0,
1748958315.6340551,650.25635,706.63495,0.0,0.0,
1748958315.6379552,781.68835,730.9742,385.09125,299.50558,
1748958315.6418555,814.61273,740.6214,1427.2539,1352.1119,
1748958315.6457555,731.50525,717.96375,802.0448,738.58575,
1748958315.6496556,626.8022,690.9693,0.0,0.0,
1748958315.6535559,655.5668,702.74066,0.0,0.0,
1748958315.6574559,768.6779,746.37427,218.61075,169.93225,
1748958315.6613562,809.0368,776.3779,1343.7039,1277.5011,
1748958315.6652563,735.57654,763.102,993.74963,859.751,
1748958315.6691563,626.8022,744.1616,0.26551914,0.0,
1748958315.6730566,611.04803,753.80884,0.0,0.0,
1748958315.6769567,734.86847,781.77686,135.23775,88.59489,
1748958315.6808567,834.4381,802.1333,1247.2319,1201.5626,
1748958315.6847570,763.63306,796.55743,1184.5693,1061.8995,
1748958315.6886570,627.1562,783.45844,107.712265,40.978455,
1748958315.6925571,615.6504,768.6779,0.0,0.0,
1748958315.6964574,743.8076,772.48364,324.28738,68.14991,
1748958315.7003574,828.0657,791.424,1316.0013,1118.1896,
1748958315.7042575,770.448,782.39636,1304.407,1297.8575,
1748958315.7081578,654.41614,761.06635,267.02374,219.40732,
1748958315.7120578,616.1814,752.74677,0.0,0.0,
1748958315.7159579,733.0098,766.4652,121.784775,70.8051,
1748958315.7198582,850.28076,793.6367,1079.1583,1036.2327,
1748958315.7237582,816.0288,780.1837,1450.0,1450.0,
1748958315.7276585,678.13586,744.8697,686.898,552.4568,
1748958315.7315586,616.4469,735.57654,0.0,0.0,
1748958315.7354586,717.2557,748.764,64.78667,31.065739,
1748958315.7393589,839.74854,775.31586,1027.5591,955.1608,
1748958315.7432590,819.215,771.33307,1450.0,1450.0,
1748958315.7471590,687.6946,748.0559,812.3115,733.36383,
1748958315.7510593,617.4205,730.3546,0.0,0.0,
1748958315.7549593,706.81195,730.5317,54.165905,17.258743,
1748958315.7588594,826.38403,755.933,1025.0809,930.5561,
1748958315.7627597,821.78174,765.22614,1450.0,1450.0,
1748958315.7666597,712.2993,750.09155,961.8873,972.15405,
1748958315.7705598,639.19305,730.2661,40.181896,79.56724,
1748958315.7744601,678.5784,719.9109,62.751022,0.0,
1748958315.7783601,795.84937,744.6042,967.64026,754.9594,
1748958315.7822602,838.95197,764.34106,1450.0,1450.0,
1748958315.7861605,721.85803,740.44434,1053.58,1020.213,
1748958315.7900605,624.4125,718.8488,130.01587,119.66062,
1748958315.7939608,677.95886,720.88446,0.0,0.0,
1748958315.7978609,800.18616,744.8697,687.7831,517.93933,
1748958315.8017609,832.668,763.0135,1450.0,1450.0,
1748958315.8056612,746.72833,737.4351,1074.6444,972.24255,
1748958315.8095613,648.7518,710.0867,133.2906,45.669292,
1748958315.8134613,655.8323,723.5397,0.0,0.0,
1748958315.8173616,769.6515,747.25934,502.4507,328.53568,
1748958315.8212616,847.9796,752.0387,1450.0,1415.04,
1748958315.8251617,774.78485,739.8248,1288.3873,1159.6991,
1748958315.8290620,653.26556,722.8316,267.20074,159.93103,
1748958315.8329620,666.3645,713.89246,0.0,0.0,
1748958315.8368621,772.04114,734.4259,652.82306,285.43307,
1748958315.8407624,833.19904,756.55255,1450.0,1344.4119,
1748958315.8446624,781.59985,743.8076,1356.8027,1320.3381,
1748958315.8485625,651.4069,718.9373,288.4423,263.21796,
1748958315.8524628,625.7401,724.4247,306.85162,0.0,
1748958315.8563628,734.0719,739.20526,952.0631,228.34645,
1748958315.8602631,837.0933,745.1352,1245.7273,1100.5768,
1748958315.8641632,790.8045,738.85126,1429.024,1443.0966,
1748958315.8680632,657.6024,712.2108,609.89746,463.3309,
1748958315.8719635,628.6608,707.16595,0.0,0.0,
1748958315.8758636,721.85803,734.51447,115.323814,76.82354,
1748958315.8797636,819.215,756.287,1128.7218,1071.7238,
1748958315.8836639,793.01715,743.9846,1450.0,1450.0,
1748958315.8875639,654.32764,719.0258,596.6215,545.3763,
1748958315.8914640,599.89624,710.3522,0.0,0.0,
1748958315.8953643,711.5028,731.3282,49.38656,8.585118,
1748958315.8992643,819.9231,748.2329,1031.9844,954.45276,
1748958315.9031644,789.74243,741.4179,1450.0,1450.0,
1748958315.9070647,679.729,723.8052,596.533,543.6062,
1748958315.9109647,610.25146,714.7775,0.0,0.0,
1748958315.9148648,696.98773,725.9293,10.26674,0.0,
1748958315.9187651,832.22546,748.764,804.16895,654.9472,
1748958315.9226651,825.676,756.11,1450.0,1450.0,
1748958315.9265654,708.228,729.6466,706.3694,585.46967,
1748958315.9304655,621.8458,701.7671,0.0,0.0,
1748958315.9343655,682.6497,706.81195,0.0,0.0,
1748958315.9382658,802.4873,728.319,606.79974,404.12012,
1748958315.9421659,804.16895,732.7443,1450.0,1383.8857,
1748958315.9460659,705.9269,707.874,1094.1158,715.48553,
1748958315.9499662,613.88025,695.83716,125.413536,0.0,
1748958315.9538662,655.2127,703.62573,0.0,0.0,
1748958315.9577663,798.239,714.866,486.43106,286.93768,
1748958315.9616666,822.04724,727.69946,1450.0,1203.6868,
1748958315.9655666,697.5188,734.51447,1090.8411,727.96497,
1748958315.9694667,594.6744,718.8488,102.932915,19.648417,
1748958315.9733670,629.28033,649.63684,0.0,0.0,
1748958315.9772670,747.7904,628.92633,699.64294,354.73355,
1748958315.9811671,793.37115,655.0357,1450.0,1419.0228,
1748958315.9850674,733.1868,642.02527,1225.0168,1191.4729,
1748958315.9889674,618.8366,617.77454,277.733,201.175,
1748958315.9928677,620.60675,613.70325,0.0,0.0,
1748958315.9967678,758.41113,639.19305,430.84906,270.91803,
1748958316.0006678,834.6152,667.95764,1393.002,1302.9908,
1748958316.0045681,767.61584,672.914,1422.032,1432.3872,
1748958316.0084682,643.5299,651.584,574.4949,509.61972,
1748958316.0123682,619.8987,638.92755,0.0,0.0,
1748958316.0162685,753.3663,668.48865,359.86694,247.72935,
1748958316.0201685,851.25433,692.3854,1334.9417,1257.4987,
1748958316.0240686,790.8045,679.28644,1450.0,1450.0,
1748958316.0279689,661.05414,661.9392,784.1665,746.72833,
1748958316.0318689,636.8034,659.54956,0.0,0.0,
1748958316.0357690,744.0731,673.53357,280.03418,156.39078,
1748958316.0396693,834.1726,697.5188,1279.3597,1174.8336,
1748958316.0435693,793.45966,698.9349,1450.0,1450.0,
1748958316.0474694,673.53357,677.4278,830.0128,824.1714,
1748958316.0513697,633.0861,666.63007,0.0,0.0,
1748958316.0552697,720.4419,678.84393,257.9961,46.908382,
1748958316.0591700,805.4965,695.3061,1177.1349,1013.7521,
1748958316.0630701,780.2722,695.3946,1450.0,1450.0,
1748958316.0669701,683.4462,681.0566,968.08276,934.7159,
1748958316.0708704,613.4377,665.6565,15.223097,43.0141,
1748958316.0747705,684.59686,678.40137,89.65696,0.0,
1748958316.0786705,791.424,699.64294,1086.9468,879.48785,
1748958316.0825708,800.18616,704.8648,1450.0,1450.0,
1748958316.0864708,714.06946,686.27844,1282.8999,1174.5681,
1748958316.0903709,620.3412,667.60364,260.12024,188.25307,
1748958316.0942712,662.0277,683.7118,0.0,0.0,
1748958316.0981712,799.2126,713.98096,1066.2363,827.9772,
1748958316.1020713,829.03925,728.496,1450.0,1450.0,
1748958316.1059716,725.7523,727.4339,1450.0,1450.0,
1748958316.1098716,630.785,698.3153,1073.0514,907.80994,
1748958316.1137717,653.88513,676.0117,16.816212,0.0,
1748958316.1176720,786.02515,706.90045,847.09454,611.31354,
1748958316.1215720,842.2267,727.0799,1450.0,1450.0,
1748958316.1254723,745.84326,716.8132,1274.6688,1270.686,
1748958316.1293724,658.1334,698.4923,342.87372,330.57132,
1748958316.1332724,687.7831,687.6061,0.0,0.0,
1748958316.1371727,786.37915,721.32697,730.0006,523.51526,
1748958316.1410728,850.28076,747.25934,1450.0,1437.7861,
1748958316.1449728,783.8125,728.76154,1397.3387,1450.0,
1748958316.1488731,653.00006,698.3153,641.4057,657.7794,
1748958316.1527731,649.63684,688.0486,0.0,0.0,
1748958316.1566732,768.5894,716.63617,495.19318,421.55588,
1748958316.1605735,841.4301,738.1432,1450.0,1410.7031,
1748958316.1644735,770.71356,725.04425,1335.0303,1389.0192,
1748958316.1683736,662.5588,712.5649,497.05182,680.1715,
1748958316.1722739,646.8931,707.52,0.0,0.0,
1748958316.1761739,748.8525,720.2649,395.00397,353.76,
1748958316.1800740,861.8751,737.6122,1353.5281,1340.8716,
1748958316.1839743,804.523,734.60297,1450.0,1450.0,
1748958316.1878743,661.05414,719.7339,774.60785,1034.9935,
1748958316.1917746,650.5219,709.2901,0.0,0.44253188,
1748958316.1956747,750.7111,723.4511,562.0155,322.69424,
1748958316.1995747,834.6152,751.6847,1421.9435,1330.0739,
1748958316.2034750,809.5679,749.472,1450.0,1450.0,
1748958316.2073750,699.2889,732.03625,914.80194,1162.7968,
1748958316.2112751,636.27234,711.32574,0.0,144.70793,
1748958316.2151754,718.49475,721.41547,187.63353,106.20766,
1748958316.2190754,837.5359,747.08234,1180.4095,1173.9486,
1748958316.2229755,817.88745,743.5421,1450.0,1450.0,
1748958316.2268758,686.721,723.1856,1198.6418,1249.5331,
1748958316.2307758,623.1734,712.2993,153.73558,236.66606,
1748958316.2346759,696.27966,727.69946,26.463408,0.0,
1748958316.2385762,818.41846,756.11,1066.9443,1033.0465,
1748958316.2424762,837.8899,758.49963,1450.0,1450.0,
1748958316.2463763,711.23724,738.4972,1165.8945,1316.1783,
1748958316.2502766,618.39404,727.96497,154.79765,341.01508,
1748958316.2541766,674.4186,745.93176,0.0,0.0,
1748958316.2580769,789.21136,776.732,996.93585,971.446,
1748958316.2619770,802.66437,780.0067,1450.0,1450.0,
1748958316.2658770,691.76587,776.2009,1210.0592,1392.3823,
1748958316.2697773,580.7789,778.4136,237.10858,518.9129,
1748958316.2736773,603.7905,789.47687,0.0,0.0,
1748958316.2775774,725.8408,835.76575,837.4473,807.00116,
1748958316.2814777,758.0571,863.0257,1450.0,1450.0,
1748958316.2853777,641.75977,856.0337,1247.4089,1437.7861,
1748958316.2892778,519.621,846.121,353.22894,687.252,
1748958316.2931781,544.1372,848.2451,0.0,0.0,
1748958316.2970781,665.3909,873.2924,541.2165,580.69037,
1748958316.3009782,714.42346,899.75586,1450.0,1450.0,
1748958316.3048785,641.84827,883.29364,1214.573,1305.0266,
1748958316.3087785,516.4347,848.6877,270.82953,496.07825,
1748958316.3126786,518.5589,843.8198,0.0,0.0,
1748958316.3165789,664.7714,860.3705,419.87427,408.1914,
1748958316.3204789,751.5077,867.3625,1397.0732,1378.9293,
1748958316.3243792,696.10266,837.7129,1450.0,1450.0,
1748958316.3282793,599.63074,804.25745,518.29333,762.2169,
1748958316.3321793,575.557,788.76886,0.0,0.0,
1748958316.3360796,682.7382,796.2919,579.45123,371.10724,
1748958316.3399796,817.2679,809.6564,1439.6448,1333.8796,
1748958316.3438797,763.98706,788.1493,1450.0,1450.0,
1748958316.3477800,644.6805,757.6146,558.9178,837.8014,
1748958316.3516800,625.12054,755.2249,315.96777,305.96655,
1748958316.3555801,730.9742,754.6939,1113.4988,736.8156,
1748958316.3594804,848.7762,746.81683,1268.7389,1135.7139,
1748958316.3633804,808.8598,742.126,1450.0,1450.0,
1748958316.3672805,687.429,712.2108,989.0588,1119.3402,
1748958316.3711808,641.84827,697.8728,11.505829,59.653297,
1748958316.3750808,726.4603,712.5649,63.724594,48.767014,
1748958316.3789809,860.54755,733.7179,1071.7238,1087.0354,
1748958316.3828812,850.19226,730.0006,1450.0,1450.0,
1748958316.3867812,707.9625,701.5016,944.9826,1188.8176,
1748958316.3906815,648.1322,672.56,18.055302,177.80931,
1748958316.3945816,717.1672,668.48865,15.754135,0.0,
1748958316.3984816,823.5519,698.7579,996.67035,1015.07965,
1748958316.4023819,848.5992,708.9361,1450.0,1450.0,
1748958316.4062819,736.8156,684.1543,978.084,1257.7642,
1748958316.4101820,635.91833,667.51514,77.7086,292.51358,
1748958316.4140823,686.898,670.2588,0.0,0.0,
1748958316.4179823,814.70123,691.9429,812.3115,831.1634,
1748958316.4218824,850.8118,705.0418,1450.0,1450.0,
1748958316.4257827,758.0571,695.92566,1073.3169,1327.6842,
1748958316.4296827,653.17706,676.0117,139.30904,424.03406,
1748958316.4335828,674.59564,676.1002,0.0,0.0,
1748958316.4374831,819.6576,708.051,633.7942,646.9816,
1748958316.4413831,881.78906,719.0258,1450.0,1450.0,
1748958316.4452832,787.9723,700.705,1321.3118,1387.957,
1748958316.4491835,675.21515,680.083,339.42197,473.68613,
1748958316.4530835,687.252,682.29565,0.0,0.0,
1748958316.4569838,808.32874,706.90045,478.81952,484.57242,
1748958316.4608839,854.6176,713.98096,1450.0,1431.6792,
1748958316.4647839,782.48486,701.9441,1335.7383,1447.8759,
1748958316.4686842,677.69336,684.86237,322.25174,549.62463,
1748958316.4725842,670.1703,683.8003,0.0,0.0,
1748958316.4764843,796.73444,704.8648,623.52747,447.8423,
1748958316.4803846,876.30164,724.4247,1450.0,1393.7985,
1748958316.4842846,790.9815,713.2729,1356.0062,1450.0,
1748958316.4881847,670.61285,682.29565,434.12378,649.1058,
1748958316.4920850,651.1414,675.48065,0.0,0.0,
1748958316.4959850,760.71234,705.3073,261.0938,216.30959,
1748958316.4998851,853.82104,731.85925,1255.817,1216.9626,
1748958316.5037854,809.3908,724.2477,1450.0,1450.0,
1748958316.5076854,665.2139,699.2004,668.31165,801.6023,
1748958316.5115855,620.87225,680.8796,0.0,0.0,
1748958316.5154858,742.2145,694.7751,117.44797,103.90649,
1748958316.5193858,820.4541,723.3626,1117.6586,1101.9044,
1748958316.5232861,788.50336,716.9017,1450.0,1450.0,
1748958316.5271862,688.3141,695.92566,719.0258,884.7983,
1748958316.5310862,628.6608,687.7831,0.0,1.5046084,
1748958316.5349865,715.30853,706.3694,55.759018,25.843863,
1748958316.5388865,835.67725,725.9293,1027.3821,1002.7773,
1748958316.5427866,825.676,718.9373,1450.0,1450.0,
1748958316.5466869,696.8107,705.5729,777.1745,984.545,
1748958316.5505869,629.9884,697.16473,0.0,80.009766,
1748958316.5544870,697.6958,699.2004,37.96924,0.0,
1748958316.5583873,813.63916,723.6282,878.51434,829.9243,
1748958316.5622873,837.0933,733.45233,1450.0,1450.0,
1748958316.5661874,719.3798,710.88324,914.71344,1108.0999,
1748958316.5700877,623.79297,691.76587,45.40377,167.10004,
1748958316.5739877,676.1887,702.74066,0.0,0.0,
1748958316.5778878,805.5851,736.9926,711.32574,669.2852,
1748958316.5817881,842.66925,742.74554,1450.0,1450.0,
1748958316.5856881,732.6558,715.6626,1222.1846,1250.2411,
1748958316.5895884,620.60675,698.8464,228.70049,270.741,
1748958316.5934885,665.3909,703.62573,0.0,0.0,
1748958316.5973885,797.6195,719.8224,607.7733,552.81085,
1748958316.6012888,821.07367,739.5593,1416.81,1405.9238,
1748958316.6051888,723.6282,745.66626,1450.0,1450.0,
1748958316.6090889,626.8022,726.2833,1114.2068,1028.4441,
1748958316.6129892,646.18506,697.7843,76.02698,26.640419,
1748958316.6168892,773.5458,703.89124,243.39255,194.183,
1748958316.6207893,838.50946,747.25934,1434.8654,1362.6442,
1748958316.6246896,763.456,740.7099,1192.3579,1277.5011,
1748958316.6285896,641.58276,712.8304,175.41965,261.0938,
1748958316.6324897,635.38727,706.1924,0.0,0.0,
1748958316.6363900,754.07434,725.13275,263.92603,224.18666,
1748958316.6402900,834.9692,753.98584,1300.8667,1247.3204,
1748958316.6441901,787.1757,744.1616,1377.5133,1450.0,
1748958316.6480904,649.99084,710.88324,439.43417,556.88214,
1748958316.6519904,604.7641,705.6614,0.0,0.0,
1748958316.6558905,741.6835,727.4339,178.25185,143.73436,
1748958316.6597908,846.65204,745.1352,1238.2927,1194.305,
1748958316.6636908,792.57465,733.0983,1355.1212,1378.0443,
1748958316.6675911,674.3301,715.9281,394.91547,499.88403,
1748958316.6714911,624.85504,726.8144,0.0,0.0,
1748958316.6753912,711.06024,748.2329,141.5217,89.30293,
1748958316.6792915,829.12775,771.06757,1128.1908,1073.4054,
1748958316.6831915,817.1794,779.6527,1450.0,1450.0,
1748958316.6870916,701.413,772.30664,735.134,851.8739,
1748958316.6909919,634.50226,770.1825,0.0,5.7529144,
1748958316.6948919,710.2637,786.5562,270.03296,7.434536,
1748958316.6987920,849.3957,814.52423,1185.543,934.0078,
1748958316.7026923,855.2371,822.31274,1450.0,1450.0,
1748958316.7065923,734.4259,808.06323,878.95685,996.4048,
1748958316.7104924,667.0726,790.9815,19.55991,87.53281,
1748958316.7143927,730.4431,792.0436,11.24031,0.0,
1748958316.7182927,852.759,821.51624,897.8087,797.44244,
1748958316.7221928,865.32684,829.6588,1450.0,1450.0,
1748958316.7260931,745.84326,809.6564,1213.2455,1217.4053,
1748958316.7299931,674.4186,797.17694,216.5751,235.86949,
1748958316.7338934,711.6798,795.1413,0.0,0.0,
1748958316.7377934,823.9944,806.91266,776.555,684.95087,
1748958316.7416935,877.7178,807.7977,1450.0,1450.0,
1748958316.7455938,773.4572,789.74243,1189.5258,1276.3505,
1748958316.7494938,648.0437,762.748,194.44852,307.8252,
1748958316.7533939,679.552,754.42834,0.0,0.0,
1748958316.7572942,811.24945,775.5814,806.4701,608.3928,
1748958316.7611942,860.72455,786.6447,1450.0,1450.0,
1748958316.7650943,757.9686,768.6779,1252.3652,1397.0732,
1748958316.7689946,651.4069,747.7904,311.18842,484.12988,
1748958316.7728946,679.02094,745.1352,0.0,0.0,
1748958316.7767947,783.547,756.55255,577.0616,472.44705,
1748958316.7806950,857.18427,772.5722,1450.0,1409.0216,
1748958316.7845950,792.66315,767.79285,1378.8408,1450.0,
1748958316.7884951,665.2139,743.27655,557.32465,713.1844,
1748958316.7923954,660.16907,739.9133,0.0,0.0,
1748958316.7962954,773.9883,754.6939,380.66592,320.03906,
1748958316.8001957,842.4922,771.59863,1417.2527,1367.4236,
1748958316.8040957,793.28265,763.102,1312.6381,1369.9017,
1748958316.8079958,691.0578,738.1432,398.01318,577.2386,
1748958316.8118961,648.66327,728.05347,0.0,0.0,
1748958316.8157961,741.1524,750.18005,265.60764,222.77055,
1748958316.8196962,845.85547,773.5458,1265.1102,1233.4249,
1748958316.8235965,801.6908,759.3847,1450.0,1450.0,
1748958316.8274965,668.8427,737.6122,670.0818,908.07544,
1748958316.8313966,638.0425,732.21326,0.0,0.0,
1748958316.8352969,732.7443,741.772,436.60196,136.47684,
1748958316.8391969,832.40247,757.43756,1344.1464,1157.4865,
1748958316.8430970,814.08167,754.42834,1450.0,1450.0,
1748958316.8469973,684.0658,731.94775,693.27045,921.1744,
1748958316.8508973,613.52625,725.04425,324.19885,340.57254,
1748958316.8547974,693.713,742.56854,836.7393,424.91913,
1748958316.8586977,817.53345,749.0295,1030.6567,870.4602,
1748958316.8625977,823.7289,754.16284,1450.0,1450.0,
1748958316.8664980,704.7763,739.8248,1113.1448,1164.9209,
1748958316.8703980,632.37805,723.8052,104.26051,147.54013,
1748958316.8742981,698.6694,730.3546,0.0,0.0,
1748958316.8781984,808.24023,749.91455,844.3508,827.3576,
1748958316.8820984,831.51746,752.1272,1450.0,1450.0,
1748958316.8859985,713.53845,732.12476,1016.3187,1205.1029,
1748958316.8898988,616.3584,723.0086,72.486725,226.84184,
1748958316.8937988,683.4462,727.78796,0.0,0.0,
1748958316.8976989,798.416,742.65704,850.98883,787.8838,
1748958316.9015992,832.668,750.7111,1450.0,1450.0,
1748958316.9054992,736.46155,730.4431,1091.7262,1300.3357,
1748958316.9093993,630.2539,710.4407,167.45407,363.84973,
1748958316.9132996,663.3553,713.1844,0.0,0.0,
1748958316.9171996,780.7148,740.5329,627.0677,599.2767,
1748958316.9210997,824.70245,756.0215,1450.0,1450.0,
1748958316.9250000,740.17883,734.86847,1234.1329,1414.1549,
1748958316.9289000,615.2963,714.24646,311.0114,568.565,
1748958316.9328003,634.76776,711.6798,0.0,0.0,
1748958316.9367003,770.448,735.2225,480.41263,449.08136,
1748958316.9406004,837.6244,756.11,1436.4585,1416.102,
1748958316.9445007,765.6687,734.69147,1428.2274,1450.0,
1748958316.9484007,642.91034,710.2637,488.3782,628.8378,
1748958316.9523008,627.95276,712.6534,0.0,0.0,
1748958316.9562011,745.0467,730.3546,343.22772,317.20685,
1748958316.9601011,838.2439,747.8789,1347.7751,1306.6196,
1748958316.9640012,787.4412,742.48,1450.0,1450.0,
1748958316.9679015,656.54034,725.04425,504.48636,755.4019,
1748958316.9718015,631.93555,715.7511,0.0,0.0,
1748958316.9757016,748.2329,725.13275,516.52325,278.7951,
1748958316.9796019,847.18304,741.1524,1411.5883,1268.4734,
1748958316.9835019,789.91943,736.28455,1450.0,1450.0,
1748958316.9874020,666.3645,721.14996,636.00684,885.86035,
1748958316.9913023,636.44934,707.43146,0.0,0.0,
1748958316.9952023,718.5833,718.14075,162.94025,96.29494,
1748958316.9991026,833.28754,747.7904,1126.0667,1091.4607,
1748958317.0030026,810.71844,744.0731,1450.0,1450.0,
1748958317.0069027,685.65894,717.3442,890.9937,969.41034,
1748958317.0108030,625.29755,700.08545,0.0,4.2483063,
1748958317.0147030,688.84515,716.8132,43.899162,19.29439,
1748958317.0186031,807.44366,745.93176,1006.052,978.88055,
1748958317.0225034,808.5943,742.74554,1450.0,1450.0,
1748958317.0264034,681.4991,721.41547,966.1356,1119.5172,
1748958317.0303035,610.07446,709.73267,34.25197,144.88495,
1748958317.0342038,686.6325,712.5649,0.0,0.0,
1748958317.0381038,788.4148,733.6294,954.7183,895.1535,
1748958317.0420039,810.54144,746.99384,1450.0,1450.0,
1748958317.0459042,714.24646,727.2569,1028.6211,1206.7844,
1748958317.0498042,623.2619,712.2108,113.81921,253.21675,
1748958317.0537043,687.3405,722.21204,0.0,0.0,
1748958317.0576046,813.63916,749.56055,773.9883,709.82117,
1748958317.0615046,837.0048,764.6951,1450.0,1450.0,
1748958317.0654049,725.13275,745.2237,1134.7402,1324.5864,
1748958317.0693049,627.68726,727.52246,191.79332,414.65237,
1748958317.0732050,662.6473,738.0547,0.0,0.0,
1748958317.0771053,777.61707,764.34106,610.42847,568.38794,
1748958317.0810053,828.68524,774.1653,1450.0,1450.0,
1748958317.0849054,736.9926,759.9158,1357.5994,1414.7744,
1748958317.0888057,618.5711,748.4099,391.55222,510.4163,
1748958317.0927057,626.2711,762.4824,0.0,0.0,
1748958317.0966058,735.75354,785.67114,488.02417,460.4102,
1748958317.1005061,791.1585,806.2046,1358.3959,1363.1753,
1748958317.1044061,713.0959,817.2679,1450.0,1450.0,
1748958317.1083062,585.02716,815.05524,1231.4778,1262.0125,
1748958317.1122065,569.5386,794.8758,148.86772,178.34035,
1748958317.1161065,675.5692,804.7,345.7059,121.69627,
1748958317.1200066,764.34106,845.2359,1450.0,1293.5208,
1748958317.1239069,711.8568,854.7946,1281.4839,1450.0,
1748958317.1278069,564.9362,838.4209,288.4423,510.94733,
1748958317.1317072,522.6302,827.9772,0.0,0.0,
1748958317.1356072,643.17584,847.00604,146.30104,145.41599,
1748958317.1395073,745.66626,863.64526,1133.3242,1122.6149,
1748958317.1434076,695.0406,854.9716,1450.0,1450.0,
1748958317.1473076,582.9915,822.7553,611.8446,815.32074,
1748958317.1512077,541.128,807.6207,0.0,0.0,
1748958317.1551080,624.4125,826.5611,65.2292,47.1739,
1748958317.1590080,745.1352,835.3232,1080.5743,1065.6168,
1748958317.1629081,731.2397,813.3736,1432.6527,1450.0,
1748958317.1668084,598.65717,784.9631,533.5165,716.8132,
1748958317.1707084,544.9338,765.49164,0.0,24.250748,
1748958317.1746085,625.9171,770.448,43.722153,5.7529144,
1748958317.1785088,725.6638,782.39636,986.31506,953.3022,
1748958317.1824088,734.86847,766.6423,1450.0,1450.0,
1748958317.1863089,623.61597,739.38226,853.0245,1045.3489,
1748958317.1902092,548.297,713.98096,0.0,117.00543,
1748958317.1941092,614.32275,695.92566,90.89605,0.0,
1748958317.1980095,747.25934,717.2557,975.16327,811.692,
1748958317.2019095,768.8549,723.8937,1450.0,1450.0,
1748958317.2058096,660.25757,698.0498,987.5542,1199.704,
1748958317.2097099,576.1765,677.87036,94.87884,266.05017,
1748958317.2136099,626.8907,669.1967,0.0,0.0,
1748958317.2175100,763.89856,689.37616,714.24646,685.3049,
1748958317.2214103,804.34595,701.413,1450.0,1450.0,
1748958317.2253103,709.73267,673.0025,1296.3529,1350.2533,
1748958317.2292104,636.7149,650.16785,309.6838,409.696,
1748958317.2331107,663.53235,651.6725,0.0,0.0,
1748958317.2370107,777.263,680.5256,598.0376,559.4488,
1748958317.2409108,835.76575,697.34174,1450.0,1450.0,
1748958317.2448111,744.1616,677.1623,1309.8944,1417.2527,
1748958317.2487111,649.3713,657.6024,315.96777,501.65414,
1748958317.2526112,663.62085,646.6276,0.0,0.0,
1748958317.2565114,766.6423,656.54034,594.9399,464.30447,
1748958317.2604115,836.9163,686.721,1450.0,1371.6719,
1748958317.2643118,777.52856,687.075,1377.1593,1450.0,
1748958317.2682118,659.0185,660.34607,447.39975,700.08545,
1748958317.2721119,653.5311,647.5127,0.0,0.0,
1748958317.2760122,769.6515,672.47144,436.8675,331.19086,
1748958317.2799122,839.74854,695.57166,1377.4248,1317.7715,
1748958317.2838123,770.3595,689.11066,1450.0,1450.0,
1748958317.2877126,653.26556,664.41736,762.0399,904.18115,
1748958317.2916126,640.6092,652.469,0.0,0.0,
1748958317.2955127,722.30054,675.03815,228.70049,167.71959,
1748958317.2994130,814.43567,696.5452,1301.2208,1246.3468,
1748958317.3033130,806.2046,683.9773,1406.1893,1436.724,
1748958317.3072131,695.0406,659.284,558.2982,720.61896,
1748958317.3111134,640.9632,658.753,0.0,0.0,
1748958317.3150134,737.0811,680.5256,157.71837,89.83398,
1748958317.3189135,855.5027,702.3866,1150.1404,1097.5676,
1748958317.3228137,831.78296,702.65216,1450.0,1450.0,
1748958317.3267138,707.07745,686.18994,839.92554,980.5622,
1748958317.3306141,647.8667,670.78986,0.0,53.01532,
1748958317.3345141,716.7247,677.87036,287.1147,0.0,
1748958317.3384142,839.30597,700.6165,1216.4316,948.9654,
1748958317.3423145,850.7233,710.97174,1450.0,1450.0,
1748958317.3462145,728.23047,692.73944,877.0982,1003.83936,
1748958317.3501146,643.7069,682.38416,378.54178,361.28305,
1748958317.3540149,710.3522,688.1371,936.13196,337.29782,
1748958317.3579149,812.4,689.11066,1090.6641,677.78186,
1748958317.3618150,813.1966,705.1303,1450.0,1450.0,
1748958317.3657153,728.58453,692.0314,1248.471,1190.4108,
1748958317.3696153,640.3436,674.77264,199.22786,178.87138,
1748958317.3735154,673.091,682.11865,0.0,0.0,
1748958317.3774157,795.4068,697.34174,688.2256,594.9399,
1748958317.3813157,827.8887,706.54645,1450.0,1450.0,
1748958317.3852158,728.4075,694.8636,1178.3739,1243.7802,
1748958317.3891160,633.4401,674.94965,184.88983,269.50192,
1748958317.3930161,657.24835,682.47266,0.0,0.0,
1748958317.3969164,771.86414,706.81195,760.1813,597.1525,
1748958317.4008164,843.6428,717.87524,1450.0,1450.0,
1748958317.4047165,749.64905,707.43146,1243.0721,1364.0603,
1748958317.4086168,614.7653,696.45667,306.4976,446.16064,
1748958317.4125168,647.6897,690.0842,0.0,0.0,
1748958317.4164169,783.45844,706.0154,500.8576,414.74088,
1748958317.4203172,852.3164,732.30176,1435.7505,1379.549,
1748958317.4242172,777.3515,728.85004,1385.7444,1450.0,
1748958317.4281173,665.3024,702.65216,550.06714,698.0498,
1748958317.4320176,659.0185,693.713,0.0,0.0,
1748958317.4359176,763.63306,715.6626,350.21973,287.2032,
1748958317.4398177,841.6957,733.1868,1348.9257,1305.4691,
1748958317.4437180,776.0239,719.9109,1450.0,1450.0,
1748958317.4476180,662.5588,706.0154,647.0701,765.13763,
1748958317.4515181,646.8931,699.3774,0.0,0.0,
1748958317.4554183,719.7339,708.8476,240.20631,185.42087,
1748958317.4593184,810.62994,727.52246,1240.7709,1185.2775,
1748958317.4632187,795.58386,731.1512,1450.0,1450.0,
1748958317.4671187,674.4186,727.52246,701.9441,921.1744,
1748958317.4710188,638.308,713.2729,0.0,0.0,
1748958317.4749191,724.0707,713.4499,418.45816,106.473175,
1748958317.4788191,810.98395,728.85004,1330.4279,1120.6677,
1748958317.4827192,798.8586,723.5397,1450.0,1450.0,
1748958317.4866195,685.83594,694.6866,842.2267,1000.56464,
1748958317.4905195,619.8987,663.3553,0.0,61.33492,
1748958317.4944196,697.9613,664.06335,79.92126,0.0,
1748958317.4983199,811.16095,692.0314,1031.6304,950.11597,
1748958317.5022199,805.5851,688.84515,1450.0,1450.0,
1748958317.5061200,696.89923,663.88635,1002.6003,1029.8602,
1748958317.5100203,641.67126,648.1322,37.261185,68.0614,
1748958317.5139203,698.5809,659.461,0.0,0.0,
1748958317.5178204,805.6736,692.4739,906.3053,835.2347,
1748958317.5217206,832.75653,692.91644,1450.0,1450.0,
1748958317.5256207,731.77075,683.8003,1137.838,1254.5779,
1748958317.5295210,644.8575,677.1623,156.30226,285.43307,
1748958317.5334210,684.0658,671.40936,0.0,0.0,
1748958317.5373211,799.4781,696.36816,874.79706,771.24457,
1748958317.5412214,838.1554,713.71545,1450.0,1450.0,
1748958317.5451214,729.5581,693.9785,1179.79,1320.6921,
1748958317.5490215,617.4205,673.445,239.23274,395.6235,
1748958317.5529218,652.64606,676.4542,0.0,0.0,
1748958317.5568218,769.6515,700.882,664.06335,569.3615,
1748958317.5607219,833.28754,714.6005,1450.0,1450.0,
1748958317.5646222,752.74677,702.3866,1314.8507,1430.4401,
1748958317.5685222,617.332,687.6946,442.17786,602.4629,
1748958317.5724223,634.94476,687.252,0.0,0.0,
1748958317.5763226,769.917,710.3522,507.14154,413.3248,
1748958317.5802226,827.0921,728.76154,1441.3264,1398.8433,
1748958317.5841227,763.98706,706.90045,1450.0,1450.0,
1748958317.5880229,654.23914,686.544,572.9903,643.08734,
1748958317.5919230,633.2631,691.9429,0.0,0.0,
1748958317.5958233,755.579,711.06024,393.8534,306.3206,
1748958317.5997233,839.57153,738.3202,1334.0566,1286.4402,
1748958317.6036234,795.2298,741.3294,1450.0,1450.0,
1748958317.6075237,680.6141,723.6282,1401.233,1343.4384,
1748958317.6114237,642.02527,696.5452,437.133,360.48648,
1748958317.6153238,755.4904,690.6153,0.0,0.0,
1748958317.6192241,836.11975,728.319,1157.929,1121.6414,
1748958317.6231241,792.0436,724.3362,1450.0,1450.0,
1748958317.6270242,677.95886,700.528,556.4396,723.7167,
1748958317.6309245,631.316,693.9785,0.0,0.0,
1748958317.6348245,708.5821,705.3073,127.891716,67.530365,
1748958317.6387246,813.2851,733.5409,1071.1042,1008.35315,
1748958317.6426249,818.15295,732.8328,1450.0,1450.0,
1748958317.6465249,691.8544,709.1131,951.7976,1036.4982,
1748958317.6504250,614.14575,700.705,54.873955,81.071846,
1748958317.6543252,691.3233,711.14874,0.26551914,0.0,
1748958317.6582253,810.1874,737.1696,985.60706,938.8757,
1748958317.6621256,828.0657,739.5593,1450.0,1450.0,
1748958317.6660256,689.8187,718.22925,829.5703,1003.0428,
1748958317.6699257,597.1525,707.43146,25.40133,132.22853,
1748958317.6738260,693.89,713.2729,0.0,0.0,
1748958317.6777260,805.1425,728.93854,916.5721,863.2027,
1748958317.6816261,807.8862,734.69147,1450.0,1450.0,
1748958317.6855264,724.3362,732.5673,1040.127,1209.8822,
1748958317.6894264,639.7241,728.496,105.411095,261.89038,
1748958317.6933265,674.2416,717.78674,0.0,0.0,
1748958317.6972268,796.91144,737.0811,818.41846,682.8267,
1748958317.7011268,839.30597,751.7732,1450.0,1450.0,
1748958317.7050269,742.303,733.8949,1151.2025,1324.2324,
1748958317.7089272,632.9976,708.8476,229.49704,425.62717,
1748958317.7128272,666.71857,706.81195,0.0,0.0,
1748958317.7167273,766.7308,736.7271,614.05725,545.0223,
1748958317.7206275,827.8002,752.1272,1450.0,1450.0,
1748958317.7245276,764.34106,734.2489,1383.0892,1420.0848,
1748958317.7284279,616.1814,716.1051,435.00885,519.8865,
1748958317.7323279,638.0425,725.30975,0.0,0.0,
1748958317.7362280,775.7584,746.99384,477.4034,413.23627,
1748958317.7401283,830.2783,750.9766,1435.2195,1392.3823,
1748958317.7440283,757.17206,744.4271,1412.6503,1450.0,
1748958317.7479284,637.8655,733.8949,443.50546,600.16174,
1748958317.7518287,632.9091,725.8408,0.0,0.0,
1748958317.7557287,739.5593,733.2753,505.28293,269.2364,
1748958317.7596288,810.0104,755.8445,1389.0192,1241.5675,
1748958317.7635291,758.1456,759.2077,1450.0,1450.0,
1748958317.7674291,638.0425,741.1524,574.05237,743.8961,
1748958317.7713292,611.04803,729.02704,0.0,0.0,
1748958317.7752295,706.1924,744.6927,277.379,174.8001,
1748958317.7791295,795.58386,770.80206,1256.7905,1177.8429,
1748958317.7830296,768.23535,766.8193,1450.0,1450.0,
1748958317.7869298,652.73456,754.6054,878.0718,950.02747,
1748958317.7908299,596.887,743.09955,3.540255,16.993225,
1748958317.7947302,673.3565,759.56177,84.6121,51.422207,
1748958317.7986302,779.8297,804.523,1147.3967,1091.6377,
1748958317.8025303,761.8629,805.9391,1450.0,1450.0,
1748958317.8064306,629.10333,792.75165,633.1746,865.41534,
1748958317.8103306,541.0395,800.27466,0.0,65.052185,
1748958317.8142307,626.4481,820.98517,35.756577,5.0448637,
1748958317.8181310,743.36505,852.582,985.78406,984.9875,
1748958317.8220310,726.0178,868.24756,1450.0,1450.0,
1748958317.8259311,598.3916,865.6809,867.1855,1098.6296,
1748958317.8298314,522.8072,857.36127,0.0,151.52292,
1748958317.8337314,588.3904,861.6981,79.74425,0.0,
1748958317.8376315,702.0326,891.2592,959.2321,789.21136,
1748958317.8415318,735.311,896.92365,1450.0,1450.0,
1748958317.8454318,625.6516,868.8671,932.1492,1115.0034,
1748958317.8493319,502.09668,851.6084,387.92346,482.00574,
1748958317.8532321,578.21216,848.1566,581.0444,255.60641,
1748958317.8571322,722.6546,836.6508,683.7118,509.44272,
1748958317.8610322,759.56177,844.7049,1450.0,1450.0,
1748958317.8649325,668.40015,835.94275,1310.3369,1293.9633,
1748958317.8688326,567.67993,804.43445,252.5087,267.20074,
1748958317.8727329,607.15375,795.2298,0.0,0.0,
1748958317.8766329,739.11676,812.4885,506.96454,445.01007,
1748958317.8805330,802.1333,820.54266,1450.0,1439.2023,
1748958317.8844333,749.91455,794.6103,1268.1194,1340.3406,
1748958317.8883333,642.02527,762.8365,252.33168,363.4957,
1748958317.8922334,625.20905,762.2169,0.0,0.0,
1748958317.8961337,773.9883,782.9274,637.3344,460.14465,
1748958317.9000337,869.7522,798.1505,1450.0,1413.3584,
1748958317.9039338,804.7885,784.8746,1308.2128,1432.3872,
1748958317.9078341,694.421,757.26056,371.72678,534.4015,
1748958317.9117341,682.38416,738.3202,0.0,0.0,
1748958317.9156342,804.9655,739.6478,323.66782,273.21918,
1748958317.9195344,894.7995,759.2077,1310.7794,1265.3757,
1748958317.9234345,823.0208,753.89734,1450.0,1450.0,
1748958317.9273345,716.3706,728.67303,676.8083,811.42645,
1748958317.9312348,690.7038,716.8132,0.0,0.0,
1748958317.9351349,766.5538,730.3546,192.58987,148.33669,
1748958317.9390352,882.67413,750.8881,1215.4581,1173.9486,
1748958317.9429352,858.9544,728.05347,1450.0,1450.0,
1748958317.9468353,717.69824,700.35095,724.86725,858.9544,
1748958317.9507356,673.6221,700.08545,0.0,0.0,
1748958317.9546356,763.72156,708.4935,113.37667,69.74303,
1748958317.9585357,869.2211,718.7603,1098.7181,1050.6592,
1748958317.9624360,841.1646,716.1051,1450.0,1450.0,
1748958317.9663360,701.6786,704.15674,805.8506,1003.4853,
1748958317.9702361,651.761,686.10144,0.0,63.10505,
1748958317.9741364,735.66504,689.11066,240.56033,0.0,
1748958317.9780364,848.9532,717.87524,1163.6819,939.58374,
1748958317.9819365,848.3336,720.70746,1450.0,1450.0,
1748958317.9858367,721.85803,700.17395,919.22723,1083.6721,
1748958317.9897368,643.7069,682.20715,33.720932,142.76079,
1748958317.9936368,723.6282,676.6313,0.0,0.0,
1748958317.9975371,851.16583,706.72345,838.1554,762.0399,
1748958318.0014372,860.282,729.29254,1450.0,1450.0,
1748958318.0053375,741.595,702.4751,1062.4305,1077.7422,
1748958318.0092375,657.24835,684.86237,92.22365,116.38589,
1748958318.0131376,713.71545,698.4923,0.0,0.0,
1748958318.0170379,840.10254,721.5925,698.4038,616.0044,
1748958318.0209379,876.03613,723.5397,1450.0,1450.0,
1748958318.0248380,780.0952,700.17395,1207.758,1273.2528,
1748958318.0287383,664.24036,681.4106,213.7429,306.05505,
1748958318.0326383,679.552,689.9072,0.0,0.0,
1748958318.0365384,820.2771,725.9293,756.1985,595.4709,
1748958318.0404387,869.2211,742.303,1450.0,1450.0,
1748958318.0443387,784.6976,722.7431,1261.6584,1366.45,
1748958318.0482388,673.6221,699.81995,329.68625,450.94,
1748958318.0521390,656.80585,687.252,0.0,0.0,
1748958318.0560391,780.5378,705.0418,479.26205,390.75568,
1748958318.0599391,845.2359,731.77075,1425.7493,1367.4236,
1748958318.0638394,782.30786,724.51324,1395.2146,1450.0,
1748958318.0677395,677.60486,701.5901,551.7488,680.26,
1748958318.0716398,656.2748,692.56244,0.0,0.0,
1748958318.0755398,775.9354,710.61774,324.90692,262.15588,
1748958318.0794399,846.2095,729.9121,1332.9945,1283.3425,
1748958318.0833402,781.1573,718.7603,1450.0,1450.0,
1748958318.0872402,691.67737,703.97974,630.785,752.2157,
1748958318.0911403,652.91156,698.0498,0.0,0.0,
1748958318.0950406,742.65704,710.70624,223.4786,175.77367,
1748958318.0989406,849.1302,744.7812,1167.7532,1152.9725,
1748958318.1028407,818.06445,749.2065,1450.0,1450.0,
1748958318.1067410,697.9613,710.88324,1200.589,1183.5073,
1748958318.1106410,632.5551,679.729,114.79277,138.06995,
1748958318.1145411,717.52124,698.8464,151.43442,0.0,
1748958318.1184413,851.07733,730.0006,1211.5638,977.73,
1748958318.1223414,839.483,723.1856,1450.0,1450.0,
1748958318.1262414,711.5028,706.1039,618.7481,809.4793,
1748958318.1301417,628.8378,694.6866,0.0,4.2483063,
1748958318.1340418,704.5993,703.09467,25.312824,0.0,
1748958318.1379421,825.32196,729.46954,864.1763,837.1818,
1748958318.1418421,807.7977,734.2489,1450.0,1450.0,
1748958318.1457422,693.8015,716.8132,1069.7766,1133.5012,
1748958318.1496425,627.1562,705.0418,130.19289,161.61264,
1748958318.1535425,690.5268,707.25446,0.0,0.0,
1748958318.1574426,809.9219,728.67303,776.555,751.2421,
1748958318.1613429,832.04846,737.4351,1450.0,1450.0,
1748958318.1652429,715.043,723.9822,995.5198,1152.707,
1748958318.1691430,626.1826,712.2993,89.83398,222.59354,
1748958318.1730433,685.57043,711.06024,0.0,0.0,
1748958318.1769433,802.75287,724.95575,805.408,718.8488,
1748958318.1808434,844.0853,732.5673,1450.0,1450.0,
1748958318.1847436,739.9133,728.05347,1135.8024,1296.3529,
1748958318.1886437,618.21704,716.4591,196.39566,363.14166,
1748958318.1925437,651.8495,706.90045,0.0,0.0,
1748958318.1964440,788.59186,729.20404,600.5158,518.9129,
1748958318.2003441,848.5107,746.72833,1450.0,1450.0,
1748958318.2042444,765.22614,728.4075,1285.6437,1420.1733,
1748958318.2081444,640.1666,699.55444,380.75446,560.6879,
1748958318.2120445,654.9472,697.07623,0.0,0.0,
1748958318.2159448,770.62506,731.68225,437.84106,390.57864,
1748958318.2198448,831.2519,755.8445,1408.933,1381.7616,
1748958318.2237449,774.1653,733.7179,1450.0,1450.0,
1748958318.2276452,658.576,707.6085,533.0739,640.8747,
1748958318.2315452,644.8575,705.3073,0.0,0.0,
1748958318.2354453,747.7019,728.76154,306.94012,263.04095,
1748958318.2393456,824.70245,757.9686,1312.5496,1273.8723,
1748958318.2432456,787.2642,758.5882,1450.0,1450.0,
1748958318.2471457,674.50714,746.37427,560.7764,742.48,
1748958318.2510459,651.4954,742.74554,0.0,0.0,
1748958318.2549460,758.7652,757.8801,348.09558,142.22975,
1748958318.2588460,851.7854,788.68036,1256.2595,1127.3058,
1748958318.2627463,826.9151,804.7885,1450.0,1450.0,
1748958318.2666464,704.7763,783.6355,697.34174,887.2764,
1748958318.2705467,644.946,763.89856,0.0,0.0,
1748958318.2744467,753.10077,786.29065,147.27461,63.282063,
1748958318.2783468,864.88434,818.9495,1111.3746,1040.127,
1748958318.2822471,842.93475,812.1345,1450.0,1450.0,
1748958318.2861471,719.9109,781.2458,1052.9603,1124.1195,
1748958318.2900472,648.7518,757.5261,98.68461,132.40555,
1748958318.2939475,730.7087,760.53534,0.0,0.0,
1748958318.2978475,856.83026,791.6896,987.02313,937.017,
1748958318.3017476,848.4221,788.68036,1450.0,1450.0,
1748958318.3056479,735.3995,762.2169,922.05945,1066.3248,
1748958318.3095479,657.8679,749.64905,55.582005,168.16212,
1748958318.3134480,688.57965,749.82605,0.0,0.0,
1748958318.3173482,813.3736,765.04913,911.26166,845.944,
1748958318.3212483,851.16583,778.4136,1450.0,1450.0,
1748958318.3251483,743.8076,758.7652,1073.8479,1227.4065,
1748958318.3290486,646.7161,733.9834,127.6262,281.4503,
1748958318.3329487,682.47266,735.134,0.0,0.0,
1748958318.3368490,793.5482,754.7824,806.3816,663.3553,
1748958318.3407490,828.2427,766.4652,1450.0,1450.0,
1748958318.3446491,743.27655,745.4892,1103.1436,1265.9067,
1748958318.3485494,630.608,737.6122,605.1181,795.67236,
1748958318.3524494,661.49664,740.7099,397.65915,299.50558,
1748958318.3563495,795.76086,745.66626,471.20795,383.94067,
1748958318.3602498,853.73254,767.61584,1440.3528,1424.0676,
1748958318.3641498,771.15607,749.472,1398.0468,1412.5618,
1748958318.3680499,646.00806,722.21204,393.67636,446.60318,
1748958318.3719501,657.8679,729.20404,0.0,0.0,
1748958318.3758502,783.8125,742.83405,383.40964,347.0335,
1748958318.3797503,850.28076,751.3306,1390.3467,1349.7223,
1748958318.3836505,784.9631,750.09155,1400.7019,1450.0,
1748958318.3875506,647.42413,730.5317,405.27072,583.3455,
1748958318.3914506,633.3516,718.14075,0.0,0.0,
1748958318.3953509,753.54333,736.37305,546.7924,339.33347,
1748958318.3992510,832.668,759.9158,1449.469,1314.6737,
1748958318.4031513,786.5562,750.44556,1427.6079,1450.0,
1748958318.4070513,661.7622,725.48676,553.25336,731.94775,
1748958318.4109514,621.22626,715.8396,0.0,0.0,
1748958318.4148517,721.14996,728.76154,232.06372,156.6563,
1748958318.4187517,823.3748,754.07434,1205.0144,1148.2817,
1748958318.4226518,789.74243,747.5249,1450.0,1450.0,
1748958318.4265521,663.1783,726.1063,913.82837,983.9254,
1748958318.4304521,615.8274,720.88446,20.799,41.332478,
1748958318.4343522,712.0338,731.1512,85.67417,28.941586,
1748958318.4382524,825.7645,754.16284,1100.5768,1029.2407,
1748958318.4421525,798.8586,751.7732,1450.0,1450.0,
1748958318.4460526,682.03015,732.47876,920.2893,999.85657,
1748958318.4499528,628.12976,722.9201,7.3460293,68.769455,
1748958318.4538529,688.3141,731.3282,26.551914,0.0,
1748958318.4577529,814.17017,754.16284,994.5462,911.08466,
1748958318.4616532,834.1726,756.1985,1450.0,1450.0,
1748958318.4655533,717.60974,742.2145,1004.10486,1123.2345,
1748958318.4694536,633.6172,725.39825,51.77623,172.14491,
1748958318.4733536,686.01294,729.8236,110.45596,0.0,
1748958318.4772537,802.2218,754.7824,1019.9475,767.96985,
1748958318.4811540,823.0208,772.04114,1450.0,1450.0,
1748958318.4850540,715.8396,770.71356,1096.594,1233.5134,
1748958318.4889541,621.04926,749.56055,157.09882,293.04462,
1748958318.4928544,654.32764,738.3202,0.0,0.0,
1748958318.4967544,758.32263,766.3767,693.00494,614.9423,
1748958318.5006545,773.1917,788.50336,1450.0,1450.0,
1748958318.5045547,662.7358,775.49286,1145.5381,1184.8348,
1748958318.5084548,549.3591,763.3675,167.80809,231.88672,
1748958318.5123549,555.3775,765.5802,0.0,0.0,
1748958318.5162551,660.25757,794.6103,545.3763,491.74142,
1748958318.5201552,701.3245,806.3816,1450.0,1443.362,
1748958318.5240552,613.52625,789.29987,1337.2429,1427.0769,
1748958318.5279555,489.9713,781.2458,346.768,512.71747,
1748958318.5318556,479.8816,773.3687,0.0,0.0,
1748958318.5357559,589.8065,782.04236,643.9724,442.2664,
1748958318.5396559,659.284,786.46765,1450.0,1399.9939,
1748958318.5435560,594.4088,763.72156,1370.4327,1450.0,
1748958318.5474563,485.2805,732.39026,472.8011,596.71,
1748958318.5513563,467.4022,707.34296,0.0,0.0,
1748958318.5552564,556.4396,711.5028,341.7231,231.17867,
1748958318.5591567,644.0609,730.7972,1312.7266,1231.1238,
1748958318.5630567,627.2447,714.33496,1450.0,1450.0,
1748958318.5669568,518.9129,683.7118,773.8998,817.3564,
1748958318.5708570,471.91602,666.71857,0.0,0.0,
1748958318.5747571,574.67194,677.69336,186.30592,106.11915,
1748958318.5786572,695.57166,690.7038,1210.7672,1124.1195,
1748958318.5825574,661.9392,667.78064,1450.0,1450.0,
1748958318.5864575,550.8637,635.29877,822.31274,843.9083,
1748958318.5903575,518.29333,615.9159,0.0,0.0,
1748958318.5942578,612.8182,620.51825,114.61576,46.111824,
1748958318.5981579,730.4431,643.08734,1093.9388,1006.8486,
1748958318.6020582,734.0719,647.33563,1450.0,1450.0,
1748958318.6059582,628.48376,618.12854,1372.0259,1335.3843,
1748958318.6098583,553.6074,573.87537,359.4244,339.06793,
1748958318.6137586,649.99084,571.7512,0.0,0.0,
1748958318.6176586,795.0528,606.62274,961.7103,823.4633,
1748958318.6215587,811.16095,607.9503,1450.0,1450.0,
1748958318.6254590,697.07623,590.3375,890.19714,1034.4625,
1748958318.6293590,620.96075,580.3363,30.092169,117.53647,
1748958318.6332591,687.075,588.0364,0.0,0.0,
1748958318.6371593,812.046,618.6596,783.6355,693.27045,
1748958318.6410594,838.86346,627.59875,1450.0,1450.0,
1748958318.6449594,736.8156,607.33075,1267.4999,1275.731,
1748958318.6488597,648.66327,591.93066,275.07782,292.7791,
1748958318.6527598,678.31287,597.241,0.0,0.0,
1748958318.6566598,806.4701,630.8735,675.8347,585.6467,
1748958318.6605601,842.4922,651.4954,1450.0,1450.0,
1748958318.6644602,744.5157,633.4401,1255.109,1307.8588,
1748958318.6683605,641.2287,623.4389,264.19153,360.8405,
1748958318.6722605,666.1875,630.8735,0.0,0.0,
1748958318.6761606,792.4861,645.0345,742.92255,554.1384,
1748958318.6800609,842.1382,664.15186,1450.0,1450.0,
