timestamps,eeg_1,eeg_2,eeg_3,eeg_4,note
1751573198.8547034,1425.9263,804.16895,1450.0,1450.0,
1751573198.8585935,1450.0,782.5734,1239.0894,1225.8134,
1751573198.8624833,545.55334,696.36816,247.19832,212.3268,
1751573198.8663733,0.0,646.8046,0.0,0.0,
1751573198.8702633,364.38077,706.3694,675.21515,710.4407,
1751573198.8741531,1331.7555,791.5126,1450.0,1450.0,
1751573198.8780432,1450.0,792.3091,1350.5188,1342.0222,
1751573198.8819332,693.35895,709.99817,379.60385,345.6174,
1751573198.8858230,0.0,648.57477,0.0,0.0,
1751573198.8897130,237.55112,704.15674,530.50726,566.2638,
1751573198.8936031,1221.6536,797.35394,1450.0,1450.0,
1751573198.8974931,1450.0,799.3896,1445.8402,1438.8481,
1751573198.9013829,843.37726,712.6534,520.50604,484.12988,
1751573198.9052730,0.0,642.4678,0.0,0.0,
1751573198.9091630,117.979004,674.77264,385.79932,415.36044,
1751573198.9130528,1096.8595,768.8549,1358.6614,1393.887,
1751573198.9169428,1450.0,799.3011,1450.0,1450.0,
1751573198.9208329,970.561,734.957,663.53235,630.2539,
1751573198.9247227,29.915155,661.9392,0.0,0.0,
1751573198.9286127,18.232313,683.0037,254.54434,277.02496,
1751573198.9325027,955.42633,767.79285,1249.7986,1284.139,
1751573198.9363925,1450.0,795.67236,1450.0,1450.0,
1751573198.9402826,1111.2861,737.7007,811.07245,785.2286,
1751573198.9441726,136.29982,661.49664,0.0,0.0,
1751573198.9480624,0.0,671.6749,130.81242,148.4252,
1751573198.9519525,810.71844,765.6687,1121.9069,1161.0267,
1751573198.9558425,1450.0,811.33795,1450.0,1450.0,
1751573198.9597325,1236.9651,755.933,957.0195,932.59174,
1751573198.9636223,255.87193,665.2139,7.169017,0.0,
1751573198.9675124,0.0,658.93,27.791002,40.447414,
1751573198.9714024,675.12665,746.37427,991.8025,1034.197,
1751573198.9752922,1450.0,798.5046,1450.0,1450.0,
1751573198.9791822,1349.9878,751.9502,1096.417,1071.4583,
1751573198.9830723,391.81775,661.6737,111.42953,71.247635,
1751573198.9869621,0.0,649.1058,0.0,0.0,
1751573198.9908521,523.4267,738.3202,846.3865,884.7098,
1751573198.9947422,1440.3528,809.6564,1450.0,1450.0,
1751573198.9986320,1440.9723,778.85614,1218.2903,1198.2878,
1751573199.0025220,525.5509,687.5176,223.92114,184.6243,
1751573199.0064120,0.0,647.9552,0.0,0.0,
1751573199.0103018,392.5258,712.9189,704.06824,735.134,
1751573199.0141919,1351.8464,793.9022,1450.0,1450.0,
1751573199.0180819,1450.0,779.29865,1329.8969,1319.3646,
1751573199.0219719,672.29443,689.6417,353.40598,317.20685,
1751573199.0258617,0.0,640.0781,0.0,0.0,
1751573199.0297518,256.75702,704.7763,553.16486,588.0364,
1751573199.0336418,1239.4434,790.539,1450.0,1450.0,
1751573199.0375316,1450.0,787.6183,1429.909,1425.3068,
1751573199.0414217,817.1794,706.1039,493.7771,462.53433,
1751573199.0453117,0.0,643.08734,0.0,0.0,
1751573199.0492015,132.14003,688.0486,411.55466,445.4526,
1751573199.0530915,1111.6401,783.8125,1377.4248,1413.8894,
1751573199.0569816,1450.0,802.0448,1450.0,1450.0,
1751573199.0608714,951.7976,720.79596,638.3965,606.79974,
1751573199.0647614,16.639198,645.56555,0.0,0.0,
1751573199.0686514,33.366905,675.5692,275.52036,304.63895,
1751573199.0725412,980.5622,773.1917,1268.7389,1308.5668,
1751573199.0764313,1450.0,808.15173,1450.0,1450.0,
1751573199.0803213,1086.5043,743.6306,785.84814,754.5169,
1751573199.0842111,114.61576,663.1783,0.0,0.0,
1751573199.0881011,0.0,670.87836,158.1609,174.8001,
1751573199.0919912,840.7221,759.2077,1152.9725,1188.9946,
1751573199.0958812,1450.0,801.1597,1450.0,1450.0,
1751573199.0997710,1212.0948,746.55133,928.4319,896.4811,
1751573199.1036611,229.23152,664.9484,0.0,0.0,
1751573199.1075511,0.0,658.753,47.1739,58.502716,
1751573199.1114409,700.17395,749.56055,1018.61993,1053.226,
1751573199.1153309,1450.0,816.5599,1450.0,1450.0,
1751573199.1192210,1326.2681,772.9262,1070.0421,1048.2695,
1751573199.1231108,359.15887,674.59564,89.037415,51.245193,
1751573199.1270008,0.0,648.2207,0.0,0.0,
1751573199.1308908,558.8293,732.7443,877.1867,917.1916,
1751573199.1347806,1450.0,805.1425,1450.0,1450.0,
1751573199.1386707,1419.2883,779.12164,1193.951,1178.1969,
1751573199.1425607,492.80353,686.45544,200.46695,163.6483,
1751573199.1464505,0.0,644.946,0.0,0.0,
1751573199.1503406,417.6616,718.8488,734.0719,774.4308,
1751573199.1542306,1369.2822,795.67236,1450.0,1450.0,
1751573199.1581206,1450.0,776.2894,1312.9921,1297.238,
1751573199.1620104,639.7241,697.07623,331.98743,292.42508,
1751573199.1659005,0.0,652.64606,0.0,0.0,
1751573199.1697905,281.98132,711.6798,584.4076,617.50903,
1751573199.1736803,1261.4814,798.7701,1450.0,1450.0,
1751573199.1775703,1450.0,793.9022,1413.8894,1403.6227,
1751573199.1814604,794.6103,703.97974,469.96887,429.52145,
1751573199.1853502,0.0,643.44135,0.0,0.0,
1751573199.1892402,158.2494,697.43024,436.33646,468.55276,
1751573199.1931303,1140.0507,788.3263,1396.7191,1428.9354,
1751573199.1970201,1450.0,798.5931,1450.0,1450.0,
1751573199.2009101,934.7159,727.2569,603.17096,580.69037,
1751573199.2048001,2.4781785,657.15985,0.0,0.0,
1751573199.2086899,53.634865,677.69336,302.16077,330.2173,
1751573199.2125800,1012.9555,769.917,1291.4851,1328.9232,
1751573199.2164700,1450.0,810.0989,1450.0,1450.0,
1751573199.2203600,1067.21,744.4271,757.26056,731.50525,
1751573199.2242498,99.127144,659.99207,0.0,0.0,
1751573199.2281399,0.0,668.31165,178.07483,196.74968,
1751573199.2320299,865.9464,756.64105,1173.5946,1211.6523,
1751573199.2359197,1450.0,805.408,1450.0,1450.0,
1751573199.2398098,1193.951,756.1985,902.411,876.21313,
1751573199.2436998,211.17622,673.0025,0.0,0.0,
1751573199.2475896,0.0,663.2668,63.901604,78.41665,
1751573199.2514796,725.39825,753.1893,1040.304,1080.3973,
1751573199.2553697,1450.0,813.99316,1450.0,1450.0,
1751573199.2592595,1311.3105,760.80084,1047.9155,1021.0981,
1751573199.2631495,339.42197,662.7358,72.22121,32.74736,
1751573199.2670395,0.0,645.91956,0.0,0.0,
1751573199.2709293,584.67316,732.30176,897.5432,936.04346,
1751573199.2748194,1450.0,807.08966,1450.0,1450.0,
1751573199.2787094,1407.9595,785.67114,1172.09,1155.1853,
1751573199.2825992,477.4919,694.7751,179.0484,143.38034,
1751573199.2864892,0.0,650.5219,0.0,0.0,
1751573199.2903793,435.5399,719.0258,753.98584,790.18494,
1751573199.2942693,1383.7087,794.2562,1450.0,1450.0,
1751573199.2981591,1450.0,774.0768,1291.7506,1279.8907,
1751573199.3020492,614.49976,693.00494,306.4091,270.4755,
1751573199.3059392,0.0,652.0265,0.0,0.0,
1751573199.3098290,301.27573,714.06946,606.97675,644.1494,
1751573199.3137190,1280.5103,799.2126,1450.0,1450.0,
1751573199.3176091,1450.0,795.93787,1395.9226,1388.5765,
1751573199.3214989,757.6146,706.98895,442.5319,409.07648,
1751573199.3253889,0.0,640.7862,0.0,0.0,
1751573199.3292789,177.27827,692.3854,461.64926,496.34378,
1751573199.3331687,1159.5221,784.6091,1413.2699,1446.3712,
1751573199.3370588,1450.0,799.0356,1450.0,1450.0,
1751573199.3409488,911.8812,722.7431,580.2478,554.581,
1751573199.3448386,0.0,649.3713,0.0,0.0,
1751573199.3487287,69.831535,681.4106,325.34946,351.72433,
1751573199.3526187,1035.4362,761.5089,1310.9564,1346.8015,
1751573199.3565087,1450.0,793.10565,1450.0,1450.0,
1751573199.3603985,1042.6936,737.1696,730.7087,699.2889,
1751573199.3642886,80.5408,655.9208,0.0,0.0,
1751573199.3681786,0.0,669.7278,197.63475,215.77855,
1751573199.3720684,889.93164,767.4388,1193.8625,1228.1145,
1751573199.3759584,1450.0,815.32074,1450.0,1450.0,
1751573199.3798485,1169.8773,756.0215,878.0718,854.35205,
1751573199.3837383,188.8726,659.90356,0.0,0.0,
1751573199.3876283,0.0,653.79663,81.60288,95.409874,
1751573199.3915184,747.34784,755.8445,1063.8467,1101.5504,
1751573199.3954082,1450.0,816.6484,1450.0,1450.0,
1751573199.3992982,1291.3081,765.7572,1018.79694,999.1485,
1751573199.4031882,316.4103,677.3393,52.04175,15.754135,
1751573199.4070780,0.0,657.6909,0.0,0.0,
1751573199.4109681,608.3043,736.5501,921.3514,964.98505,
1751573199.4148581,1450.0,806.3816,1450.0,1450.0,
1751573199.4187481,1390.8777,777.263,1150.1404,1133.1472,
1751573199.4226379,449.96643,683.9773,158.78044,122.66984,
1751573199.4265280,0.0,642.02527,0.0,0.0,
1751573199.4304180,463.5964,721.14996,780.9803,819.1265,
1751573199.4343078,1401.056,809.2138,1450.0,1450.0,
1751573199.4381979,1450.0,795.1413,1273.1643,1258.3837,
1751573199.4420879,592.19617,700.35095,285.34457,247.55234,
1751573199.4459777,0.0,642.91034,0.0,0.0,
1751573199.4498677,321.9862,711.5028,628.5723,664.9484,
1751573199.4537578,1297.5035,803.72644,1450.0,1450.0,
1751573199.4576476,1450.0,799.0356,1380.257,1370.5212,
1751573199.4615376,736.5501,710.2637,419.25473,383.0556,
1751573199.4654276,0.0,646.00806,0.0,0.0,
1751573199.4693174,199.7589,689.9072,485.723,518.29333,
1751573199.4732075,1185.189,775.13885,1429.4666,1450.0,
1751573199.4770975,1450.0,797.885,1450.0,1450.0,
1751573199.4809873,876.39014,728.93854,551.2177,528.7371,
1751573199.4848773,0.0,651.584,0.0,0.0,
1751573199.4887674,84.6121,685.03937,346.50247,378.9843,
1751573199.4926574,1051.3673,780.9803,1328.3037,1367.1581,
1751573199.4965472,1450.0,806.2046,1450.0,1450.0,
1751573199.5004373,1014.72565,732.03625,702.65216,676.1887,
1751573199.5043273,59.653297,651.6725,0.0,0.0,
1751573199.5082171,0.0,675.48065,223.3901,241.26839,
1751573199.5121071,917.1916,774.3423,1219.2639,1253.6929,
1751573199.5159972,1450.0,812.9311,1450.0,1450.0,
1751573199.5198870,1145.2726,747.8789,851.9624,819.392,
1751573199.5237770,164.62186,661.40814,0.0,0.0,
1751573199.5276670,0.0,666.3645,101.60532,114.61576,
1751573199.5315568,778.76764,756.99506,1087.1239,1121.4644,
1751573199.5354469,1450.0,805.4965,1450.0,1450.0,
1751573199.5393369,1269.447,755.579,997.9094,970.915,
1751573199.5432267,292.33658,666.1875,35.845085,0.0,
1751573199.5471168,0.0,655.7438,0.0,8.673625,
1751573199.5510068,626.5367,746.81683,947.10675,987.37714,
1751573199.5548968,1450.0,813.2851,1450.0,1450.0,
1751573199.5587866,1373.3535,778.67914,1124.1195,1110.4895,
1751573199.5626767,422.44095,683.2692,135.41476,102.578896,
1751573199.5665667,0.0,644.1494,0.0,0.0,
1751573199.5704565,491.82996,725.8408,805.7621,846.121,
1751573199.5743465,1419.5538,808.5943,1450.0,1450.0,
1751573199.5782366,1450.0,783.8125,1249.7986,1238.0272,
1751573199.5821264,565.6443,691.4118,258.43863,224.6292,
1751573199.5860164,0.0,647.9552,0.0,0.0,
1751573199.5899065,349.15765,714.06946,659.54956,699.64294,
1751573199.5937963,1320.4266,800.09766,1450.0,1450.0,
1751573199.5976863,1450.0,789.47687,1362.0247,1349.6338,
1751573199.6015763,705.3073,701.236,394.0304,356.23816,
1751573199.6054661,0.0,648.57477,0.0,0.0,
1751573199.6093562,220.82341,696.7222,513.51404,547.0579,
1751573199.6132462,1206.1649,782.48486,1446.2827,1450.0,
1751573199.6171362,1450.0,790.00793,1450.0,1449.2035,
1751573199.6210260,848.9532,711.14874,526.79,500.06104,
1751573199.6249161,0.0,646.00806,0.0,0.0,
1751573199.6288061,107.18122,680.7026,373.85095,402.08447,
1751573199.6326959,1079.6008,771.24457,1348.5717,1382.9121,
1751573199.6365860,1450.0,803.4609,1450.0,1450.0,
1751573199.6404760,996.67035,739.6478,684.59686,654.41614,
1751573199.6443658,44.96124,663.53235,0.0,0.0,
1751573199.6482558,8.673625,680.3485,247.0213,263.395,
1751573199.6521459,944.18604,769.0319,1242.895,1273.8723,
1751573199.6560357,1450.0,808.5058,1450.0,1450.0,
1751573199.6599257,1126.8632,737.8777,827.8887,798.6816,
1751573199.6638157,149.66429,639.9896,0.0,0.0,
1751573199.6677055,0.0,656.98285,123.28938,141.78722,
1751573199.6715956,799.56665,760.88934,1114.8263,1154.6542,
1751573199.6754856,1450.0,813.63916,1450.0,1450.0,
1751573199.6793754,1248.471,758.8537,972.5081,945.2481,
1751573199.6832654,268.08582,661.6737,18.763351,0.0,
1751573199.6871555,0.0,646.7161,16.37368,27.082952,
1751573199.6910455,654.32764,736.9041,975.3403,1013.398,
1751573199.6949353,1450.0,807.17816,1450.0,1450.0,
1751573199.6988254,1353.9706,771.15607,1104.3826,1080.3088,
1751573199.7027154,395.4465,680.26,117.44797,78.32815,
1751573199.7066052,0.0,648.9288,0.0,0.0,
1751573199.7104952,516.0807,725.22125,835.50024,872.49585,
1751573199.7143853,1435.308,803.63794,1450.0,1450.0,
1751573199.7182751,1447.0793,781.1573,1231.5663,1215.6351,
1751573199.7221651,538.3843,687.9601,238.61319,201.352,
1751573199.7260551,0.0,646.9816,0.0,0.0,
1751573199.7299449,380.1349,717.1672,688.57965,726.4603,
1751573199.7338350,1342.1992,798.1505,1450.0,1450.0,
1751573199.7377250,1450.0,788.0608,1343.1729,1332.729,
1751573199.7416148,686.45544,704.33374,370.4877,334.6426,
1751573199.7455049,0.0,646.09656,0.0,0.0,
1751573199.7493949,243.92358,699.0234,545.1108,577.76965,
1751573199.7532849,1229.9731,792.2206,1450.0,1450.0,
1751573199.7571747,1450.0,800.36316,1438.3171,1432.1217,
1751573199.7610648,820.4541,723.0086,509.97375,473.59763,
1751573199.7649548,0.0,655.5668,0.0,0.0,
1751573199.7688446,126.47562,693.8015,400.49136,434.3008,
1751573199.7727346,1102.9664,783.28143,1369.0167,1406.2778,
1751573199.7766247,1450.0,803.1069,1450.0,1450.0,
1751573199.7805145,967.81726,722.8316,654.15063,618.21704,
1751573199.7844045,26.640419,641.3172,0.0,0.0,
1751573199.7882946,25.755356,678.84393,269.59042,292.60208,
1751573199.7921844,968.5253,785.58264,1263.1631,1297.5035,
1751573199.7960744,1450.0,822.40125,1450.0,1450.0,
1751573199.7999644,1105.7102,751.5962,800.8057,770.89056,
1751573199.8038542,129.83885,658.6645,0.0,0.0,
1751573199.8077443,0.0,658.93,140.90216,158.07239,
1751573199.8116343,827.53467,753.63184,1134.9172,1170.4083,
1751573199.8155243,1450.0,801.42523,1450.0,1450.0,
1751573199.8194141,1230.1501,750.09155,945.8677,921.52844,
1751573199.8233042,245.69371,666.71857,1.2390893,0.0,
1751573199.8271942,0.0,659.3725,33.720932,47.1739,
1751573199.8310840,683.1807,753.01227,1000.4761,1042.0741,
1751573199.8349741,1450.0,817.4449,1450.0,1450.0,
1751573199.8388641,1338.6589,776.46643,1080.4858,1063.6697,
1751573199.8427539,377.5682,685.12787,98.5076,63.724594,
1751573199.8466439,0.0,653.08856,0.0,0.0,
1751573199.8505340,533.6935,727.78796,860.105,900.81793,
1751573199.8544238,1444.6896,801.5138,1450.0,1450.0,
1751573199.8583138,1434.8654,775.6699,1210.1477,1191.3844,
1751573199.8622038,516.1692,687.429,216.75212,177.89783,
1751573199.8660936,0.0,647.5127,0.0,0.0,
1751573199.8699837,401.28793,717.78674,711.14874,749.56055,
1751573199.8738737,1357.3339,804.16895,1450.0,1450.0,
1751573199.8777637,1450.0,791.7781,1326.6221,1313.2577,
1751573199.8816535,667.60364,699.3774,348.89215,310.74588,
1751573199.8855436,0.0,646.09656,0.0,0.0,
1751573199.8894336,264.36856,702.82916,566.97186,598.3916,
1751573199.8933234,1247.6744,790.18494,1450.0,1450.0,
1751573199.8972135,1450.0,799.4781,1425.2183,1420.1733,
1751573199.9011035,804.43445,718.5833,488.02417,455.27682,
1751573199.9049933,0.0,645.65405,0.0,0.0,
1751573199.9088833,144.08838,684.95087,422.1754,455.0113,
1751573199.9127734,1123.854,776.909,1383.3547,1418.9342,
1751573199.9166632,1450.0,799.65515,1450.0,1450.0,
1751573199.9205532,937.37103,732.03625,636.8919,603.879,
1751573199.9244432,4.6023316,654.06213,0.0,0.0,
1751573199.9283330,40.978455,682.47266,287.1147,314.9057,
1751573199.9322231,987.9082,774.51935,1281.0414,1318.3025,
1751573199.9361131,1450.0,801.1597,1450.0,1450.0,
1751573199.9400029,1074.0249,741.3294,771.15607,744.1616,
1751573199.9438930,104.52603,661.31964,0.0,0.0,
1751573199.9477830,0.0,667.60364,164.09082,183.2967,
1751573199.9516730,853.73254,763.98706,1160.0531,1197.4028,
1751573199.9555628,1450.0,812.9311,1450.0,1450.0,
1751573199.9594529,1199.173,753.10077,916.5721,888.69257,
1751573199.9633429,216.4866,666.0105,0.0,0.0,
1751573199.9672327,0.0,663.3553,55.316486,67.530365,
1751573199.9711227,713.62695,748.941,1029.3292,1066.3248,
1751573199.9750128,1450.0,804.34595,1450.0,1450.0,
1751573199.9789026,1316.7979,758.41113,1055.1731,1032.3384,
1751573199.9827926,350.04272,662.6473,77.97412,41.686504,
1751573199.9866827,0.0,642.64484,0.0,0.0,
1751573199.9905725,567.59143,727.61096,886.39136,922.14795,
1751573199.9944625,1450.0,787.7068,1450.0,1450.0,
1751573199.9983525,1414.5089,756.287,1185.1005,1171.8245,
1751573200.0022423,485.98853,682.11865,191.79332,157.54135,
1751573200.0061324,0.0,651.584,0.0,0.0,
1751573200.0100224,420.5823,723.6282,742.74554,779.8297,
1751573200.0139124,1374.15,803.4609,1450.0,1450.0,
1751573200.0178022,1450.0,779.29865,1302.1058,1291.4851,
1751573200.0216923,630.4309,689.37616,318.8885,284.81354,
1751573200.0255823,0.0,643.17584,0.0,0.0,
1751573200.0294721,287.91125,702.1211,593.34674,628.92633,
1751573200.0333622,1269.1815,786.29065,1450.0,1450.0,
1751573200.0372522,1450.0,783.6355,1406.9858,1396.0996,
1751573200.0411420,768.23535,701.6786,457.57797,418.9007,
1751573200.0450320,0.0,643.8839,0.0,0.0,
1751573200.0489221,166.569,696.6337,449.5239,479.35056,
1751573200.0528119,1148.7242,789.29987,1404.2422,1436.547,
1751573200.0567019,1450.0,799.92065,1450.0,1450.0,
1751573200.0605919,911.5272,723.4511,595.4709,564.9362,
1751573200.0644817,0.0,644.2379,0.0,0.0,
1751573200.0683718,58.325703,672.38293,314.37466,337.91736,
1751573200.0722618,1011.36237,771.95264,1301.5748,1334.7646,
1751573200.0761518,1450.0,801.1597,1450.0,1450.0,
1751573200.0800416,1051.8098,734.1604,746.46277,720.1764,
1751573200.0839317,85.32015,652.91156,0.0,0.0,
1751573200.0878217,0.0,662.6473,185.50937,205.95435,
1751573200.0917115,884.0902,757.8801,1182.6222,1220.0604,
1751573200.0956016,1450.0,802.4873,1450.0,1450.0,
1751573200.0994916,1181.9142,745.1352,890.46265,867.0085,
1751573200.1033814,201.2635,657.7794,0.0,0.0,
1751573200.1072714,0.0,659.90356,71.60166,86.29372,
1751573200.1111615,736.19604,750.9766,1050.9247,1091.3722,
1751573200.1150513,1450.0,806.4701,1450.0,1450.0,
1751573200.1189413,1296.6184,759.2962,1030.1257,1007.2026,
1751573200.1228313,323.93335,663.2668,59.210766,23.011658,
1751573200.1267211,0.0,642.55634,0.0,0.0,
1751573200.1306112,593.16974,726.1948,914.1824,949.3194,
1751573200.1345012,1450.0,800.09766,1450.0,1450.0,
1751573200.1383910,1396.6306,773.8998,1162.1772,1141.8208,
1751573200.1422811,457.40097,677.2508,170.28627,132.22853,
1751573200.1461711,0.0,640.5207,0.0,0.0,
1751573200.1500611,444.47903,722.38904,763.63306,796.82294,
1751573200.1539509,1391.1433,807.7092,1450.0,1450.0,
1751573200.1578410,1450.0,784.8746,1279.8022,1268.2079,
1751573200.1617310,597.3295,692.1199,291.09747,257.19952,
1751573200.1656208,0.0,648.3092,0.0,0.0,
1751573200.1695108,316.14478,707.697,620.69525,653.97363,
1751573200.1734009,1291.8391,793.37115,1450.0,1450.0,
1751573200.1772907,1450.0,790.18494,1390.6122,1380.434,
1751573200.1811807,747.17084,701.1475,434.12378,396.33157,
1751573200.1850708,0.0,644.6805,0.0,0.0,
1751573200.1889606,187.81053,693.713,476.87238,511.74387,
1751573200.1928506,1172.3555,780.8033,1421.7665,1450.0,
1751573200.1967406,1450.0,793.9907,1450.0,1450.0,
1751573200.2006304,885.68335,721.85803,569.8926,541.74756,
1751573200.2045205,0.0,649.99084,0.0,0.0,
1751573200.2084105,78.50516,676.3657,339.953,366.3279,
1751573200.2123005,1041.5431,774.2538,1323.4359,1358.3959,
1751573200.2161903,1450.0,809.4793,1450.0,1450.0,
1751573200.2200804,1026.851,736.6386,716.9902,683.5348,
1751573200.2239704,68.14991,649.72534,0.0,0.0,
1751573200.2278602,0.0,664.5944,208.69804,228.61197,
1751573200.2317502,904.44666,762.4824,1205.7224,1240.0629,
1751573200.2356403,1450.0,809.9219,1450.0,1450.0,
1751573200.2395301,1162.0002,750.00305,862.9372,836.38525,
1751573200.2434201,180.28749,660.70013,0.0,0.0,
1751573200.2473102,0.0,657.07135,91.427086,106.473175,
1751573200.2512000,763.1905,748.3214,1075.8835,1113.3218,
1751573200.2550900,1450.0,805.5851,1450.0,1450.0,
1751573200.2589800,1280.5103,757.8801,1003.2198,985.51855,
1751573200.2628698,306.3206,667.86914,40.2704,6.549472,
1751573200.2667599,0.0,655.6553,0.0,0.708051,
1751573200.2706499,615.2963,743.36505,934.8929,976.9334,
1751573200.2745399,1450.0,812.9311,1450.0,1450.0,
1751573200.2784297,1382.8236,776.2894,1138.2805,1122.4379,
1751573200.2823198,437.39853,675.7462,147.62865,113.022644,
1751573200.2862098,0.0,643.9724,0.0,0.0,
1751573200.2900996,473.77466,722.7431,795.76086,833.8186,
1751573200.2939897,1409.4641,801.33673,1450.0,1450.0,
1751573200.2978797,1450.0,782.48486,1262.1895,1246.7893,
1751573200.3017695,577.76965,692.91644,271.8031,234.5419,
1751573200.3056595,0.0,649.81384,0.0,0.0,
1751573200.3095496,340.48404,716.54767,648.66327,683.3577,
1751573200.3134394,1312.3726,797.708,1450.0,1450.0,
1751573200.3173294,1450.0,787.3527,1374.5925,1362.0247,
1751573200.3212194,720.0879,701.236,410.13855,372.61185,
1751573200.3251092,0.0,645.56555,0.0,0.0,
1751573200.3289993,210.73369,699.90845,500.32657,532.45435,
1751573200.3328893,1195.1902,793.5482,1436.8125,1450.0,
1751573200.3367791,1450.0,804.6115,1450.0,1450.0,
1751573200.3406692,863.3797,722.6546,545.0223,514.9301,
1751573200.3445592,0.0,647.6897,0.0,0.0,
1751573200.3484492,102.40188,680.9681,363.14166,389.33957,
1751573200.3523390,1074.7329,774.51935,1341.1372,1374.2385,
1751573200.3562291,1450.0,799.83215,1450.0,1450.0,
1751573200.3601191,1009.1497,732.21326,696.89923,666.54156,
1751573200.3640089,54.431423,662.2932,0.0,0.0,
1751573200.3678989,0.3540255,677.69336,229.14302,253.83629,
1751573200.3717890,932.68024,765.13763,1226.5214,1265.2872,
1751573200.3756788,1450.0,807.08966,1450.0,1450.0,
1751573200.3795688,1140.5817,746.10876,837.2703,812.1345,
1751573200.3834589,161.17012,664.5944,0.0,0.0,
1751573200.3873487,0.0,670.0818,112.3146,127.36068,
1751573200.3912387,794.5218,753.98584,1100.9308,1138.1035,
1751573200.3951287,1450.0,800.09766,1450.0,1450.0,
1751573200.3990185,1262.0125,752.1272,981.3587,953.83325,
1751573200.4029086,285.16754,671.9404,24.162241,0.0,
1751573200.4067986,0.0,664.5944,8.142587,19.117378,
1751573200.4106886,637.777,749.91455,962.41833,1000.56464,
1751573200.4145784,1450.0,819.3035,1450.0,1450.0,
1751573200.4184685,1353.7936,791.8666,1097.0366,1093.7618,
1751573200.4223585,398.63272,699.4659,116.03186,90.276505,
1751573200.4262483,0.0,667.69214,0.0,0.0,
1751573200.4301383,490.14832,747.43634,817.0024,856.2107,
1751573200.4340284,1421.678,820.4541,1450.0,1450.0,
1751573200.4379182,1450.0,793.45966,1239.0894,1229.9731,
1751573200.4418082,549.3591,704.6878,247.64085,215.95557,
1751573200.4456983,0.0,653.17706,0.0,0.0,
1751573200.4495881,361.28305,717.3442,671.49786,711.5913,
1751573200.4534781,1328.3922,810.0989,1450.0,1450.0,
1751573200.4573681,1450.0,801.42523,1354.8556,1342.9072,
1751573200.4612579,704.5108,709.99817,384.91425,347.122,
1751573200.4651480,0.0,652.469,0.0,0.0,
1751573200.4690380,239.58676,698.0498,528.9141,566.52936,
1751573200.4729280,1226.7869,788.85736,1450.0,1450.0,
1751573200.4768178,1450.0,807.5322,1446.2827,1440.6183,
1751573200.4807079,837.4473,724.4247,521.12555,487.75867,
1751573200.4845979,0.0,650.16785,0.0,0.0,
1751573200.4884877,118.68705,687.9601,389.51657,417.3076,
1751573200.4923778,1092.8767,782.39636,1361.7592,1394.5065,
1751573200.4962678,1450.0,802.8414,1450.0,1450.0,
1751573200.5001576,982.4208,727.1684,663.4438,633.1746,
1751573200.5040476,35.49106,651.6725,0.0,0.0,
1751573200.5079377,15.931149,677.0738,250.82707,276.1399,
1751573200.5118275,954.6298,774.96185,1246.4353,1283.077,
1751573200.5157175,1450.0,813.90466,1450.0,1450.0,
1751573200.5196075,1119.2517,749.2065,809.3908,790.36194,
1751573200.5234973,140.10559,653.97363,0.0,0.0,
1751573200.5273874,0.0,658.4874,130.01587,149.22176,
1751573200.5312774,823.1093,756.90656,1121.4644,1162.8853,
1751573200.5351672,1450.0,808.24023,1450.0,1450.0,
1751573200.5390573,1241.833,758.32263,952.0631,934.0078,
1751573200.5429473,262.33292,669.5508,5.575902,0.0,
1751573200.5468373,0.0,661.9392,27.879509,39.916378,
1751573200.5507271,679.10944,748.1444,990.03235,1033.843,
1751573200.5546172,1450.0,811.24945,1450.0,1450.0,
1751573200.5585072,1350.7843,775.40436,1088.9824,1071.1927,
1751573200.5623970,396.42007,681.2336,106.29616,71.424644,
1751573200.5662870,0.0,647.24713,0.0,0.0,
1751573200.5701771,527.321,724.3362,845.1474,882.4971,
1751573200.5740669,1442.5654,798.8586,1450.0,1450.0,
1751573200.5779569,1442.2114,773.6343,1216.3431,1200.8545,
1751573200.5818470,533.2509,689.5532,222.85905,186.92548,
1751573200.5857368,0.0,647.8667,0.0,0.0,
1751573200.5896268,392.4373,711.14874,699.64294,735.0455,
1751573200.5935168,1352.2004,794.9643,1450.0,1450.0,
1751573200.5974066,1450.0,785.3171,1335.2073,1322.6393,
1751573200.6012967,674.94965,704.15674,359.6014,321.54367,
1751573200.6051867,0.0,655.3897,0.0,0.0,
1751573200.6090767,263.92603,706.54645,553.34186,588.3904,
1751573200.6129665,1246.9663,789.12286,1450.0,1450.0,
1751573200.6168566,1450.0,792.84015,1429.6436,1425.4838,
1751573200.6207466,820.71967,706.54645,494.1311,464.21594,
1751573200.6246364,0.0,638.92755,0.0,0.0,
1751573200.6285264,130.4584,693.89,410.40408,443.06293,
1751573200.6324165,1104.6481,794.7873,1375.8317,1412.3848,
1751573200.6363063,1450.0,807.17816,1450.0,1450.0,
1751573200.6401963,964.277,730.0006,644.1494,608.7469,
1751573200.6440864,18.763351,652.73456,0.0,0.0,
1751573200.6479762,38.146248,671.05536,278.61807,300.12512,
1751573200.6518662,997.11285,759.1192,1271.6597,1304.761,
1751573200.6557562,1450.0,801.33673,1450.0,1450.0,
1751573200.6596460,1098.5411,752.2157,788.0608,756.3755,
1751573200.6635361,125.85607,671.05536,0.0,0.0,
1751573200.6674261,0.0,672.737,155.68272,173.73802,
1751573200.6713161,853.113,764.07556,1151.114,1186.6935,
1751573200.6752059,1450.0,805.9391,1450.0,1450.0,
1751573200.6790960,1212.9799,749.118,930.8216,906.3053,
1751573200.6829860,233.0373,668.22314,0.0,0.0,
1751573200.6868758,0.0,653.7081,44.164684,54.431423,
1751573200.6907659,696.7222,737.7892,1014.63715,1049.9512,
1751573200.6946559,1450.0,807.17816,1450.0,1450.0,
1751573200.6985457,1330.6049,767.88135,1067.2985,1047.119,
1751573200.7024357,368.18652,681.2336,86.82476,51.422207,
1751573200.7063258,0.0,664.5059,0.0,0.0,
1751573200.7102156,551.4832,743.01105,879.5764,912.41223,
1751573200.7141056,1450.0,814.43567,1450.0,1450.0,
1751573200.7179956,1425.3068,785.4941,1196.0752,1180.4095,
1751573200.7218854,503.5128,687.6061,204.0957,166.74602,
1751573200.7257755,0.0,645.3,0.0,0.0,
1751573200.7296655,418.36966,717.69824,727.4339,765.04913,
1751573200.7335553,1369.8132,799.92065,1450.0,1450.0,
1751573200.7374454,1450.0,783.6355,1318.4795,1300.6897,
1751573200.7413354,652.82306,695.92566,338.3599,295.16876,
1751573200.7452254,0.0,642.3793,0.0,0.0,
1751573200.7491152,280.12268,704.42224,583.6996,614.9423,
1751573200.7530053,1262.101,799.4781,1450.0,1450.0,
1751573200.7568953,1450.0,799.56665,1414.5089,1406.4548,
1751573200.7607851,785.93665,714.06946,471.38498,434.3893,
1751573200.7646751,0.0,650.8759,0.0,0.0,
1751573200.7685652,157.18733,691.8544,438.81464,465.0125,
1751573200.7724550,1135.5369,783.36993,1396.6306,1427.5194,
1751573200.7763450,1450.0,803.63794,1450.0,1450.0,
1751573200.7802351,931.97217,726.2833,614.7653,580.51337,
1751573200.7841249,3.274736,646.36206,0.0,0.0,
1751573200.7880149,50.006104,670.61285,301.36423,326.41153,
1751573200.7919049,1005.25543,770.89056,1291.1311,1326.2681,
1751573200.7957947,1450.0,813.81616,1450.0,1450.0,
1751573200.7996848,1066.5018,749.0295,758.7652,731.85925,
1751573200.8035748,99.30415,662.9128,0.0,0.0,
1751573200.8074648,0.0,669.9048,173.82652,195.59909,
1751573200.8113546,866.8315,761.33185,1171.6475,1210.6787,
1751573200.8152447,1450.0,810.0104,1450.0,1450.0,
1751573200.8191347,1193.066,755.8445,894.44543,876.5672,
1751573200.8230245,211.35323,659.81506,0.0,0.0,
1751573200.8269145,0.0,652.91156,65.49472,77.88561,
1751573200.8308046,720.88446,752.1272,1040.7465,1080.0433,
1751573200.8346944,1450.0,819.1265,1450.0,1450.0,
1751573200.8385844,1305.9116,773.8998,1043.3132,1016.1417,
1751573200.8424745,334.5541,673.8876,66.6453,30.003662,
1751573200.8463643,0.0,653.00006,0.0,0.0,
1751573200.8502543,574.67194,740.35583,908.6065,936.22046,
1751573200.8541443,1450.0,811.16095,1450.0,1450.0,
1751573200.8580341,1406.8973,778.94464,1173.1521,1153.7692,
1751573200.8619242,469.61484,687.5176,180.19899,142.22975,
1751573200.8658142,0.0,648.4862,0.0,0.0,
1751573200.8697042,445.01007,715.48553,756.99506,791.07,
1751573200.8735940,1388.311,802.0448,1450.0,1450.0,
1751573200.8774841,1450.0,789.47687,1294.4058,1283.6965,
1751573200.8813741,616.80096,695.0406,311.0999,274.7238,
1751573200.8852639,0.0,642.82184,0.0,0.0,
1751573200.8891540,302.95734,700.08545,608.8354,646.8931,
1751573200.8930440,1282.0149,784.078,1450.0,1450.0,
1751573200.8969338,1450.0,781.4228,1395.9226,1388.2225,
1751573200.9008238,760.53534,694.9521,442.7089,408.81097,
1751573200.9047139,0.0,630.1654,0.0,0.0,
1751573200.9086037,187.10248,675.12665,465.101,499.17596,
1751573200.9124937,1176.5153,769.563,1413.1814,1448.4069,
1751573200.9163837,1450.0,791.7781,1450.0,1450.0,
1751573200.9202735,903.56165,711.8568,587.4168,550.5097,
1751573200.9241636,0.0,626.3596,0.0,0.0,
1751573200.9280536,68.592445,655.1242,327.82764,352.6094,
1751573200.9319434,1031.1879,758.5882,1312.5496,1346.713,
1751573200.9358335,1450.0,797.531,1450.0,1450.0,
1751573200.9397235,1037.8258,732.8328,732.5673,700.7935,
1751573200.9436135,76.73503,652.292,0.0,0.0,
1751573200.9475033,0.0,660.08057,198.07727,217.01764,
1751573200.9513934,891.6133,751.3306,1195.2787,1229.0881,
1751573200.9552834,1450.0,800.8057,1450.0,1450.0,
1751573200.9591732,1171.559,743.18805,879.13385,858.15784,
1751573200.9630632,189.9347,656.62885,0.0,0.0,
1751573200.9669533,0.0,656.80585,83.46152,99.39266,
1751573200.9708431,750.6226,747.34784,1066.4133,1108.4539,
1751573200.9747331,1450.0,804.25745,1450.0,1450.0,
1751573200.9786232,1289.9805,758.32263,1021.0981,997.9979,
1751573200.9825130,314.8172,671.40936,49.652077,14.072515,
1751573200.9864030,0.0,650.6104,0.0,0.0,
1751573200.9902930,615.3848,733.0098,935.60095,970.738,
1751573200.9941828,1450.0,807.00116,1450.0,1450.0,
1751573200.9980729,1388.5765,779.03314,1148.9012,1131.9966,
1751573201.0019629,450.14343,680.437,158.2494,121.607765,
1751573201.0058529,0.0,635.38727,0.0,0.0,
1751573201.0097427,465.27805,723.0086,785.84814,823.7289,
1751573201.0136328,1403.7112,811.869,1450.0,1450.0,
1751573201.0175228,1450.0,791.3355,1274.4033,1258.0297,
1751573201.0214126,583.8766,695.57166,286.49515,245.69371,
1751573201.0253026,0.0,641.4057,0.0,0.0,
1751573201.0291927,332.8725,708.405,641.84827,679.28644,
1751573201.0330825,1304.23,794.0792,1450.0,1450.0,
1751573201.0369725,1450.0,782.04236,1375.1237,1368.0431,
1751573201.0408626,733.8064,698.3153,413.5903,381.99353,
1751573201.0447524,0.0,641.0517,0.0,0.0,
1751573201.0486424,202.4141,699.1119,493.7771,524.13477,
1751573201.0525324,1187.1361,797.6195,1431.5022,1450.0,
1751573201.0564222,1450.0,807.08966,1450.0,1450.0,
1751573201.0603123,877.5408,724.51324,558.7408,530.59576,
1751573201.0642023,0.0,650.07935,0.0,0.0,
1751573201.0680923,94.170784,680.9681,356.23816,384.3832,
1751573201.0719821,1065.9708,769.2974,1335.4728,1370.6097,
1751573201.0758722,1450.0,789.91943,1450.0,1450.0,
1751573201.0797622,1018.00037,721.94653,703.53723,676.1887,
1751573201.0836520,60.803883,651.8495,0.0,0.0,
1751573201.0875421,0.0,678.66693,223.4786,250.38455,
1751573201.0914321,925.42267,772.7492,1220.2374,1262.101,
1751573201.0953219,1450.0,811.869,1450.0,1450.0,
1751573201.0992119,1147.2197,749.0295,850.19226,821.3392,
1751573201.1031020,166.74602,660.78864,0.0,0.0,
1751573201.1069918,0.0,665.6565,105.58811,120.545685,
1751573201.1108818,782.7504,756.64105,1094.0273,1130.492,
1751573201.1147718,1450.0,808.32874,1450.0,1450.0,
1751573201.1186616,1262.455,762.3939,988.0852,959.9402,
1751573201.1225517,283.39743,669.6393,26.551914,0.0,
1751573201.1264417,0.0,649.3713,8.408106,14.338034,
1751573201.1303315,639.8126,740.8869,964.277,993.74963,
1751573201.1342216,1450.0,809.8334,1450.0,1450.0,
1751573201.1381116,1368.0431,774.0768,1122.6149,1107.8344,
1751573201.1420016,417.3076,683.6233,134.70671,99.8352,
1751573201.1458914,0.0,652.115,0.0,0.0,
1751573201.1497815,492.4495,726.1948,814.34717,852.1394,
1751573201.1536715,1417.8722,797.44244,1450.0,1450.0,
1751573201.1575613,1450.0,773.8113,1249.3561,1234.3984,
1751573201.1614513,574.3179,687.5176,261.80188,220.82341,
1751573201.1653414,0.0,650.6104,0.0,0.0,
1751573201.1692312,356.5037,720.97296,667.4266,705.2188,
1751573201.1731212,1326.8876,801.8678,1450.0,1450.0,
1751573201.1770113,1450.0,790.45044,1355.5637,1345.474,
1751573201.1809011,704.9533,701.5901,386.41885,350.66226,
1751573201.1847911,0.0,647.42413,0.0,0.0,
1751573201.1886811,231.09015,707.7855,522.8957,555.55457,
1751573201.1925709,1216.6971,793.28265,1450.0,1450.0,
1751573201.1964610,1450.0,789.65393,1449.469,1444.6011,
1751573201.2003510,851.6969,716.2821,526.8785,492.6265,
1751573201.2042410,0.0,658.8415,0.0,0.0,
1751573201.2081308,112.3146,698.7579,378.09924,406.15576,
1751573201.2120209,1088.9824,788.59186,1353.6166,1386.9834,
1751573201.2159109,1450.0,798.6816,1450.0,1450.0,
1751573201.2198007,984.0139,722.5661,672.47144,642.73334,
1751573201.2236907,38.234756,654.5047,0.0,0.0,
1751573201.2275808,13.364463,681.58765,248.34889,271.62607,
1751573201.2314706,950.3815,777.61707,1244.9307,1280.5103,
1751573201.2353606,1450.0,816.4713,1450.0,1450.0,
1751573201.2392507,1111.3746,740.26733,816.9139,791.07,
1751573201.2431405,136.74236,646.18506,0.0,0.0,
1751573201.2470305,0.0,666.0105,129.21931,145.41599,
1751573201.2509205,805.9391,773.1917,1121.2874,1158.5485,
1751573201.2548103,1450.0,827.0036,1450.0,1450.0,
1751573201.2587004,1230.5042,777.086,960.55975,934.5389,
1751573201.2625904,252.06616,683.5348,9.735702,0.0,
1751573201.2664804,0.0,667.1611,25.224318,35.40255,
1751573201.2703702,638.75055,750.7111,986.5806,1025.3464,
1751573201.2742603,1450.0,818.15295,1450.0,1450.0,
1751573201.2781503,1335.2073,779.03314,1091.4607,1072.2548,
1751573201.2820401,364.46927,683.8003,108.68583,72.92925,
1751573201.2859302,0.0,663.2668,0.0,0.0,
1751573201.2898202,488.7322,757.34906,840.36804,876.5672,
1751573201.2937100,1430.1746,837.8899,1450.0,1450.0,
1751573201.2976000,1428.8469,807.17816,1216.3431,1198.1993,
1751573201.3014901,486.60806,711.6798,224.18666,185.06683,
1751573201.3053799,0.0,672.47144,0.0,0.0,
1751573201.3092699,339.8645,749.295,691.3233,726.6374,
1751573201.3131599,1319.8071,842.0497,1450.0,1450.0,
1751573201.3170497,1450.0,833.5531,1329.8083,1321.2233,
1751573201.3209398,618.7481,734.2489,350.21973,318.35745,
1751573201.3248298,0.0,670.3473,0.0,0.0,
1751573201.3287196,224.18666,734.957,546.6154,584.0536,
1751573201.3326097,1205.0144,830.1898,1450.0,1450.0,
1751573201.3364997,1450.0,836.38525,1429.024,1425.1298,
1751573201.3403897,774.1653,742.3915,489.70578,461.47226,
1751573201.3442795,0.0,670.4358,0.0,0.0,
1751573201.3481696,122.66984,713.4499,405.71323,438.99164,
1751573201.3520596,1088.0974,800.5402,1374.327,1410.8801,
1751573201.3559494,1450.0,823.5519,1450.0,1450.0,
1751573201.3598394,932.94574,736.9926,634.2367,605.56067,
1751573201.3637295,8.496613,652.91156,0.0,0.0,
1751573201.3676193,34.605995,673.3565,274.45828,299.77112,
1751573201.3715093,976.13684,757.7916,1267.4114,1304.584,
1751573201.3753994,1450.0,807.44366,1450.0,1450.0,
1751573201.3792892,1085.2653,755.3134,784.7861,754.8709,
1751573201.3831792,113.37667,671.49786,0.0,0.0,
1751573201.3870692,0.0,672.29443,150.37233,168.87016,
1751573201.3909590,843.9968,753.2778,1145.2726,1181.4717,
1751573201.3948491,1450.0,792.0436,1450.0,1450.0,
1751573201.3987391,1218.3788,741.772,926.39624,904.26965,
1751573201.4026291,237.1971,661.23114,0.0,0.0,
1751573201.4065189,0.0,650.6989,46.377342,55.670513,
1751573201.4104090,700.35095,734.51447,1015.34515,1051.0133,
1751573201.4142990,1450.0,800.7172,1450.0,1450.0,
1751573201.4181888,1333.3486,757.8801,1064.9972,1049.5972,
1751573201.4220788,370.4877,664.9484,86.382225,52.661297,
1751573201.4259689,0.0,646.9816,0.0,0.0,
1751573201.4298587,564.05115,729.7351,873.0269,914.0054,
1751573201.4337487,1450.0,802.3103,1450.0,1450.0,
1751573201.4376388,1429.4666,774.78485,1195.6327,1182.1797,
1751573201.4415286,516.70026,673.53357,203.29915,167.27705,
1751573201.4454186,0.0,624.2355,0.0,0.0,
1751573201.4493086,426.42374,700.17395,728.93854,771.59863,
1751573201.4531984,1375.7432,788.68036,1450.0,1450.0,
1751573201.4570885,1450.0,784.432,1314.8507,1300.9552,
1751573201.4609785,658.3989,698.6694,333.2265,296.58487,
1751573201.4648685,0.0,640.3436,0.0,0.0,
1751573201.4687583,290.65494,698.7579,582.549,614.7653,
1751573201.4726484,1271.8367,787.9723,1450.0,1450.0,
1751573201.4765384,1450.0,786.11365,1413.6239,1405.4813,
1751573201.4804282,804.34595,686.544,468.64127,432.17664,
1751573201.4843183,0.0,611.6676,0.0,0.0,
1751573201.4882083,164.88739,679.8175,437.133,465.72055,
1751573201.4920981,1150.4944,793.28265,1395.2146,1427.1654,
1751573201.4959881,1450.0,803.72644,1450.0,1450.0,
1751573201.4998782,950.82404,719.2913,612.4641,583.3455,
1751573201.5037680,8.496613,647.6012,0.0,0.0,
1751573201.5076580,55.22798,669.6393,304.28494,329.68625,
1751573201.5115480,1022.33716,752.4812,1292.5471,1328.6577,
1751573201.5154378,1450.0,795.2298,1450.0,1450.0,
1751573201.5193279,1069.7766,744.6927,763.54456,733.36383,
1751573201.5232179,99.8352,664.7714,0.0,0.0,
1751573201.5271080,0.0,674.59564,176.3047,196.39566,
1751573201.5309978,875.5051,754.25134,1173.2406,1211.8293,
1751573201.5348878,1450.0,789.65393,1450.0,1450.0,
1751573201.5387778,1195.8097,742.2145,904.00415,874.88556,
1751573201.5426676,214.09692,665.2139,0.0,0.0,
1751573201.5465577,0.0,663.0898,69.74303,82.84197,
1751573201.5504477,726.5489,741.2409,1051.1018,1087.1239,
1751573201.5543375,1450.0,800.8057,1450.0,1450.0,
1751573201.5582275,1310.8679,763.89856,1042.6936,1018.61993,
1751573201.5621176,340.74954,670.0818,67.88439,31.242752,
1751573201.5660074,0.0,646.6276,0.0,0.0,
1751573201.5698974,585.11566,731.2397,903.73865,937.7251,
1751573201.5737875,1450.0,805.5851,1450.0,1450.0,
1751573201.5776772,1410.3491,773.9883,1175.1877,1155.2738,
1751573201.5815673,482.44827,678.84393,182.14613,143.38034,
1751573201.5854573,0.0,633.6172,0.0,0.0,
1751573201.5893471,439.7882,701.6786,759.56177,791.7781,
1751573201.5932372,1385.9214,795.58386,1450.0,1450.0,
1751573201.5971272,1450.0,790.45044,1292.2816,1279.7137,
1751573201.6010172,620.4297,701.5016,307.11713,270.6525,
1751573201.6049070,0.0,646.45056,0.0,0.0,
1751573201.6087971,303.9309,704.15674,610.25146,644.6805,
1751573201.6126871,1283.6965,779.7412,1450.0,1450.0,
1751573201.6165769,1450.0,773.1917,1394.8605,1388.665,
1751573201.6204669,766.9963,698.5809,442.2664,408.54544,
1751573201.6243570,0.0,645.123,0.0,0.0,
1751573201.6282468,185.68639,697.25323,465.101,503.24725,
1751573201.6321368,1173.6831,788.68036,1414.9514,1450.0,
1751573201.6360269,1450.0,802.4873,1450.0,1450.0,
1751573201.6399167,907.01337,713.2729,585.11566,550.42114,
1751573201.6438067,0.0,636.18384,0.0,0.0,
1751573201.6476967,71.69017,682.7382,332.784,355.1761,
1751573201.6515865,1037.3833,777.79407,1316.0013,1350.1648,
1751573201.6554766,1450.0,793.8137,1450.0,1450.0,
1751573201.6593666,1036.3212,722.9201,732.7443,690.8808,
1751573201.6632566,73.725815,647.0701,0.0,0.0,
1751573201.6671464,0.0,666.54156,199.31636,219.84984,
1751573201.6710365,904.8892,769.563,1197.4028,1231.2123,
1751573201.6749265,1450.0,817.0909,1450.0,1450.0,
1751573201.6788163,1167.6647,757.7916,872.8499,851.16583,
1751573201.6827064,186.74846,660.78864,0.0,0.0,
1751573201.6865964,0.0,658.93,89.39144,101.07429,
1751573201.6904862,754.7824,753.89734,1075.441,1109.2505,
1751573201.6943762,1450.0,803.1954,1450.0,1450.0,
1751573201.6982663,1287.8563,759.56177,1011.36237,993.66113,
1751573201.7021561,311.0999,671.05536,44.78423,10.974791,
1751573201.7060461,0.0,646.9816,0.0,0.0,
1751573201.7099361,622.8194,743.09955,938.3446,975.2518,
1751573201.7138259,1450.0,826.20703,1450.0,1450.0,
1751573201.7177160,1381.8501,786.7332,1141.9978,1123.4115,
1751573201.7216060,438.7261,684.59686,152.23097,113.90771,
1751573201.7254961,0.0,649.3713,0.0,0.0,
1751573201.7293859,464.12744,730.2661,791.6896,831.95996,
1751573201.7332759,1405.1273,820.4541,1450.0,1450.0,
1751573201.7371659,1450.0,802.9299,1262.5435,1246.3468,
1751573201.7410557,569.9811,709.1131,272.33414,234.63042,
1751573201.7449458,0.0,662.6473,0.0,0.0,
1751573201.7488358,333.49203,720.2649,639.9011,677.60486,
1751573201.7527256,1306.7081,798.8586,1450.0,1450.0,
1751573201.7566156,1450.0,796.20337,1363.0868,1358.5729,
1751573201.7605057,718.05225,705.8384,393.32236,366.3279,
1751573201.7643955,0.0,640.8747,0.0,0.0,
1751573201.7682855,210.29115,697.25323,489.70578,527.76355,
1751573201.7721756,1193.951,795.3183,1432.1217,1450.0,
1751573201.7760653,1450.0,807.7092,1450.0,1450.0,
1751573201.7799554,862.4946,726.1948,538.91534,512.3634,
1751573201.7838454,0.0,655.8323,0.0,0.0,
1751573201.7877352,97.0915,690.5268,356.94623,385.53378,
1751573201.7916253,1066.6788,775.9354,1335.0303,1372.2029,
1751573201.7955153,1450.0,791.9551,1450.0,1450.0,
1751573201.7994053,1003.57385,723.9822,696.8107,663.53235,
1751573201.8032951,52.838306,659.63806,0.0,0.0,
1751573201.8071852,0.0,684.95087,226.39932,246.13625,
1751573201.8110752,922.856,776.0239,1224.5742,1259.6228,
1751573201.8149650,1450.0,812.4885,1450.0,1450.0,
1751573201.8188550,1129.0759,746.46277,832.31396,798.062,
1751573201.8227451,153.64708,659.72656,0.0,0.0,
1751573201.8266349,0.0,664.41736,108.06629,114.70427,
1751573201.8305249,768.41235,752.4812,1096.24,1120.2252,
1751573201.8344150,1450.0,805.054,1450.0,1450.0,
1751573201.8383048,1244.3997,760.4468,965.07355,930.025,
1751573201.8421948,263.04095,676.1887,20.887505,0.0,
1751573201.8460848,0.0,664.5059,2.4781785,6.549472,
1751573201.8499746,611.40204,746.46277,941.1768,968.43677,
1751573201.8538647,1450.0,801.42523,1450.0,1450.0,
1751573201.8577547,1346.536,756.72955,1084.2031,1044.1982,
1751573201.8616447,378.01074,671.6749,110.80998,70.09705,
1751573201.8655345,0.0,654.5932,0.0,0.0,
1751573201.8694246,448.1963,725.6638,780.0952,786.7332,
1751573201.8733146,1410.0836,799.92065,1450.0,1450.0,
1751573201.8772044,1432.5642,784.3435,1202.7131,1154.3887,
1751573201.8810945,476.87238,691.67737,211.35323,154.97467,
1751573201.8849845,0.0,645.83105,0.0,0.0,
1751573201.8888743,291.6285,711.41425,622.8194,607.24225,
1751573201.8927643,1285.8207,792.0436,1450.0,1450.0,
1751573201.8966544,1450.0,774.96185,1317.5945,1263.1631,
1751573201.9005442,580.7789,690.9693,323.3138,237.81664,
1751573201.9044342,0.0,645.74255,0.0,0.0,
1751573201.9083242,163.8253,699.1119,469.43784,440.31924,
1751573201.9122140,1134.3862,788.4148,1437.4321,1450.0,
1751573201.9161041,1450.0,792.66315,1424.9526,1385.9214,
1751573201.9199941,705.4843,710.88324,451.91357,347.38754,
1751573201.9238842,0.0,647.5127,0.0,0.0,
1751573201.9277740,67.17634,687.1635,340.83807,307.64816,
1751573201.9316640,978.96906,776.8205,1333.4371,1348.2177,
1751573201.9355540,1450.0,792.2206,1450.0,1450.0,
1751573201.9394438,845.1474,718.05225,599.2767,477.75745,
1751573201.9433339,0.0,647.6897,0.0,0.0,
1751573201.9472239,0.0,676.4542,216.84062,187.01398,
1751573201.9511137,816.8254,768.9434,1211.3868,1207.8466,
1751573201.9550037,1450.0,806.2046,1450.0,1450.0,
1751573201.9588938,988.2622,742.48,742.48,624.2355,
1751573201.9627836,62.751022,657.7794,0.0,0.0,
1751573201.9666736,0.0,662.2047,115.1468,93.905266,
1751573201.9705637,669.1082,750.09155,1089.071,1069.5111,
1751573201.9744534,1450.0,801.1597,1450.0,1450.0,
1751573201.9783435,1138.723,747.7019,899.84436,787.7953,
1751573201.9822335,154.88617,662.1162,0.0,0.0,
1751573201.9861233,0.0,658.3989,21.330038,12.567905,
1751573201.9900134,540.6855,746.99384,955.2493,930.379,
1751573201.9939034,1450.0,809.3023,1450.0,1450.0,
1751573201.9977934,1271.4827,769.2974,1045.8799,953.0367,
1751573202.0016832,263.04095,679.906,80.71782,21.241531,
1751573202.0055733,0.0,655.4782,0.0,0.0,
1751573202.0094633,411.37766,735.84204,816.4713,787.9723,
1751573202.0133531,1400.6134,807.7977,1450.0,1450.0,
1751573202.0172431,1402.2065,782.5734,1186.428,1125.1816,
1751573202.0211332,403.32358,691.9429,193.38644,125.413536,
1751573202.0250230,0.0,647.42413,0.0,0.0,
1751573202.0289130,310.12634,719.9109,687.6946,666.80707,
1751573202.0328031,1300.6012,805.9391,1450.0,1450.0,
1751573202.0366929,1450.0,794.9643,1316.0013,1275.554,
1751573202.0405829,557.9442,702.0326,329.59775,255.87193,
1751573202.0444729,0.0,644.4149,0.0,0.0,
1751573202.0483627,212.3268,703.80273,560.33386,547.8545,
1751573202.0522528,1187.2246,794.5218,1450.0,1450.0,
1751573202.0561428,1450.0,801.2482,1421.7665,1405.0388,
1751573202.0600328,732.21326,719.4683,478.6425,411.37766,
1751573202.0639226,0.0,653.5311,0.0,0.0,
1751573202.0678127,122.75835,696.27966,426.42374,434.21228,
1751573202.0717027,1079.0698,785.84814,1384.8593,1410.2606,
1751573202.0755925,1450.0,802.2218,1450.0,1450.0,
1751573202.0794826,902.7651,731.2397,638.66205,583.08,
1751573202.0833726,0.0,656.98285,0.0,0.0,
1751573202.0872624,36.19911,678.84393,298.4435,313.75513,
1751573202.0911524,965.5161,779.29865,1287.3253,1314.9392,
1751573202.0950425,1450.0,818.507,1450.0,1450.0,
1751573202.0989323,1066.4133,751.2421,789.83093,747.25934,
1751573202.1028223,97.799545,665.47943,0.0,0.0,
1751573202.1067123,0.0,675.21515,176.57022,196.66118,
1751573202.1106021,852.936,767.0848,1176.9578,1210.6787,
1751573202.1144922,1450.0,808.8598,1450.0,1450.0,
1751573202.1183822,1206.3419,750.7111,936.7515,912.5008,
1751573202.1222723,221.17744,667.2496,0.0,0.0,
1751573202.1261621,0.0,664.5944,65.052185,85.40865,
1751573202.1300521,730.5317,747.34784,1052.6948,1100.3113,
1751573202.1339421,1450.0,805.3195,1450.0,1450.0,
1751573202.1378319,1333.0831,768.5009,1079.8663,1068.272,
1751573202.1417220,374.382,681.1451,89.65696,50.80266,
1751573202.1456120,0.0,663.79785,0.0,0.0,
1751573202.1495018,606.88824,746.55133,918.43066,981.62427,
1751573202.1533918,1450.0,810.4529,1450.0,1450.0,
1751573202.1572819,1415.6595,777.1745,1196.2522,1197.2258,
1751573202.1611717,510.94733,690.0842,198.96234,171.43686,
1751573202.1650617,0.0,656.3633,0.0,0.0,
1751573202.1689517,477.84595,726.3718,779.47565,848.8647,
1751573202.1728415,1400.5249,806.91266,1450.0,1450.0,
1751573202.1767316,1450.0,791.424,1319.0991,1322.6393,
1751573202.1806216,688.4911,696.36816,342.6082,324.19885,
1751573202.1845114,0.0,648.2207,0.0,0.0,
1751573202.1884015,344.55533,714.866,639.01605,708.8476,
1751573202.1922915,1313.9657,803.81494,1450.0,1450.0,
1751573202.1961815,1450.0,798.1505,1413.1814,1419.2883,
1751573202.2000713,850.36926,707.9625,484.21838,477.5804,
1751573202.2039614,0.0,650.16785,0.0,0.0,
1751573202.2078514,217.90271,702.3866,488.11267,568.29944,
1751573202.2117412,1219.1754,787.3527,1418.8457,1450.0,
1751573202.2156312,1450.0,804.43445,1450.0,1450.0,
1751573202.2195213,989.4128,732.8328,633.6172,634.1482,
1751573202.2234111,12.036867,659.99207,0.0,0.0,
1751573202.2273011,99.127144,688.4026,347.0335,415.36044,
1751573202.2311912,1106.6837,776.2009,1325.9141,1379.9915,
1751573202.2350810,1450.0,800.7172,1450.0,1450.0,
1751573202.2389710,1125.0931,734.60297,777.3515,790.45044,
1751573202.2428610,125.05951,658.3989,0.0,0.0,
1751573202.2467508,0.0,673.0025,214.45096,273.13068,
1751573202.2506409,979.5886,764.34106,1217.4053,1285.6437,
1751573202.2545309,1450.0,809.2138,1450.0,1450.0,
1751573202.2584209,1233.6019,757.7916,918.5192,942.4159,
1751573202.2623107,245.78221,672.02893,0.0,0.0,
1751573202.2662008,0.0,671.32086,94.25929,137.00787,
1751573202.2700908,841.0761,760.80084,1094.3813,1175.9843,
1751573202.2739806,1450.0,814.52423,1450.0,1450.0,
1751573202.2778707,1337.6854,767.1733,1055.2616,1080.3973,
1751573202.2817607,392.87982,674.2416,67.441864,41.686504,
1751573202.2856505,0.0,657.24835,0.0,17.701275,
1751573202.2895405,691.58887,739.7363,954.8953,1052.3408,
1751573202.2934306,1450.0,808.9483,1450.0,1450.0,
1751573202.2973204,1419.6423,775.9354,1179.259,1196.5177,
1751573202.3012104,534.0475,682.6497,180.64153,160.55057,
1751573202.3051004,0.0,649.1058,0.0,0.0,
1751573202.3089902,542.19006,724.95575,815.23224,913.1203,
1751573202.3128803,1433.3608,810.2759,1450.0,1450.0,
1751573202.3167703,1450.0,798.9471,1289.6265,1304.4955,
1751573202.3206604,676.6313,707.43146,306.5861,300.03662,
1751573202.3245502,0.0,655.7438,0.0,0.0,
1751573202.3284402,386.50735,713.62695,668.40015,754.6054,
1751573202.3323302,1345.0315,795.0528,1450.0,1450.0,
1751573202.3362200,1450.0,797.35394,1384.9478,1396.2766,
1751573202.3401101,812.5771,715.22003,437.48703,441.46982,
1751573202.3440001,0.0,654.6817,0.0,0.0,
1751573202.3478899,240.1178,709.2901,517.6738,600.6043,
1751573202.3517799,1236.6996,796.55743,1437.9631,1450.0,
1751573202.3556700,1450.0,799.3896,1450.0,1450.0,
1751573202.3595598,936.39746,719.6454,588.65594,599.4537,
1751573202.3634498,0.0,652.73456,0.0,0.0,
1751573202.3673398,113.55368,685.12787,374.4705,450.58597,
1751573202.3712296,1111.9941,777.44,1347.0671,1402.7375,
1751573202.3751197,1450.0,804.34595,1450.0,1450.0,
1751573202.3790097,1057.7397,731.4167,729.8236,746.02026,
1751573202.3828995,77.88561,655.3012,0.0,0.0,
1751573202.3867896,7.08051,678.75543,235.42697,293.8412,
1751573202.3906796,972.5966,774.96185,1234.9294,1300.7782,
1751573202.3945696,1450.0,817.71045,1450.0,1450.0,
1751573202.3984594,1170.3198,750.09155,866.4774,882.58563,
1751573202.4023495,186.39444,658.753,0.0,0.0,
1751573202.4062395,0.0,662.2047,116.12037,152.67351,
1751573202.4101293,818.7725,758.5882,1112.6136,1181.2062,
1751573202.4140193,1450.0,817.1794,1450.0,1450.0,
1751573202.4179094,1277.4126,765.49164,1000.3876,1011.71643,
1751573202.4217992,307.55966,671.14386,33.54392,3.9827871,
1751573202.4256892,0.0,654.7702,7.6115484,30.977232,
1751573202.4295793,663.79785,740.17883,969.05634,1046.1454,
1751573202.4334691,1450.0,806.64716,1450.0,1450.0,
1751573202.4373591,1375.6547,772.7492,1125.4471,1130.0494,
1751573202.4412491,436.24792,683.3577,135.59177,110.367455,
1751573202.4451389,0.0,653.44257,0.0,0.0,
1751573202.4490290,509.88525,732.03625,821.95874,891.8788,
1751573202.4529190,1430.3516,811.16095,1450.0,1450.0,
1751573202.4568090,1450.0,788.2378,1244.6652,1245.8158,
1751573202.4606988,560.5109,691.67737,252.06616,232.41776,
1751573202.4645889,0.0,645.65405,0.0,0.0,
1751573202.4684789,364.38077,710.1752,685.65894,733.2753,
1751573202.4723687,1333.1716,796.64594,1450.0,1450.0,
1751573202.4762588,1450.0,791.6011,1350.8728,1351.0499,
1751573202.4801488,698.3153,703.71423,383.85217,362.34512,
1751573202.4840386,0.0,643.7954,0.0,0.0,
1751573202.4879286,230.2051,699.2889,523.1612,576.6191,
1751573202.4918187,1216.0776,789.74243,1450.0,1450.0,
1751573202.4957085,1450.0,793.6367,1443.5391,1436.9895,
1751573202.4995985,827.8002,713.80396,514.31055,485.369,
1751573202.5034885,0.0,652.115,0.0,0.0,
1751573202.5073783,116.562904,689.19916,378.09924,406.86383,
1751573202.5112684,1089.1595,781.1573,1355.8292,1391.1433,
1751573202.5151584,1450.0,805.9391,1450.0,1450.0,
1751573202.5190485,963.746,726.4603,652.292,619.1021,
1751573202.5229383,26.728926,639.01605,0.0,0.0,
1751573202.5268283,17.789782,654.8587,252.33168,275.16632,
1751573202.5307183,951.7976,755.0479,1246.7008,1281.5724,
1751573202.5346081,1450.0,805.4965,1450.0,1450.0,
1751573202.5384982,1096.6825,745.75476,807.6207,783.6355,
1751573202.5423882,125.94458,660.34607,0.0,0.0,
1751573202.5462780,0.0,667.69214,138.51248,156.7448,
1751573202.5501680,802.4873,754.9594,1131.4656,1169.7888,
1751573202.5540581,1450.0,803.3724,1450.0,1450.0,
1751573202.5579479,1221.6536,751.1536,958.6126,941.8849,
1751573202.5618379,240.47183,662.2047,6.9034977,0.0,
1751573202.5657279,0.0,656.98285,30.80022,45.669292,
1751573202.5696177,656.1863,746.10876,998.6175,1046.1454,
1751573202.5735078,1450.0,807.44366,1450.0,1450.0,
1751573202.5773978,1336.2693,762.1284,1100.2228,1084.9996,
1751573202.5812876,368.8061,671.6749,110.63297,73.99133,
1751573202.5851777,0.0,654.06213,0.0,0.0,
1751573202.5890677,514.8416,736.19604,864.4418,917.0146,
1751573202.5929577,1438.1401,807.7092,1450.0,1450.0,
1751573202.5968475,1435.0425,782.21936,1227.318,1225.3708,
1751573202.6007376,508.64615,691.9429,231.00165,204.27272,
1751573202.6046276,0.0,651.0529,0.0,0.0,
1751573202.6085174,388.01196,719.7339,730.0891,788.50336,
1751573202.6124074,1349.0143,799.65515,1450.0,1450.0,
1751573202.6162975,1450.0,783.547,1337.8624,1336.8888,
1751573202.6201873,653.6196,698.4038,367.03595,343.05072,
1751573202.6240773,0.0,653.17706,0.0,0.0,
1751573202.6279674,265.51913,712.2108,587.0628,650.7874,
1751573202.6318572,1246.5238,802.2218,1450.0,1450.0,
1751573202.6357472,1450.0,800.6287,1436.4585,1437.1666,
1751573202.6396372,805.408,716.1051,523.4267,507.14154,
1751573202.6435270,0.0,653.44257,0.0,0.0,
1751573202.6474171,145.59299,693.44745,433.32724,493.7771,
1751573202.6513071,1126.3322,781.3343,1391.7628,1435.839,
1751573202.6551971,1450.0,795.84937,1450.0,1450.0,
1751573202.6590869,945.9562,726.1948,642.82184,626.3596,
1751573202.6629770,11.682842,654.32764,0.0,0.0,
1751573202.6668670,40.181896,675.8347,284.725,321.8977,
1751573202.6707568,993.4841,764.6066,1277.9436,1323.0819,
1751573202.6746469,1450.0,795.93787,1450.0,1450.0,
1751573202.6785369,1082.5215,725.5753,778.59064,759.1192,
1751573202.6824267,110.45596,636.8034,0.0,0.0,
1751573202.6863167,0.0,646.8046,159.66551,183.56223,
1751573202.6902068,853.55554,738.1432,1155.8933,1199.2615,
1751573202.6940966,1450.0,782.9274,1450.0,1450.0,
1751573202.6979866,1205.8109,731.3282,919.05023,898.0742,
1751573202.7018766,223.56711,645.83105,0.0,0.0,
1751573202.7057664,0.0,639.28156,50.094612,60.36135,
1751573202.7096565,714.866,728.76154,1021.4521,1058.0938,
1751573202.7135465,1450.0,789.91943,1450.0,1450.0,
1751573202.7174366,1319.0991,749.118,1058.0052,1035.7017,
1751573202.7213264,353.31747,666.099,79.74425,44.076176,
1751573202.7252164,0.0,645.83105,0.0,0.0,
1751573202.7291064,568.6535,725.39825,884.5328,918.5192,
1751573202.7329962,1450.0,796.4689,1450.0,1450.0,
1751573202.7368863,1416.633,770.1825,1184.3038,1170.9393,
1751573202.7407763,489.7943,681.76465,190.64275,157.27583,
1751573202.7446661,0.0,642.64484,0.0,0.0,
1751573202.7485561,434.21228,710.1752,744.2501,775.5814,
1751573202.7524462,1381.0536,784.7861,1450.0,1450.0,
1751573202.7563360,1450.0,773.3687,1301.1323,1290.246,
1751573202.7602260,631.84705,691.58887,318.44595,283.39743,
1751573202.7641160,0.0,641.3172,0.0,0.0,
1751573202.7680058,291.6285,699.2004,593.43524,622.1998,
1751573202.7718959,1272.5447,787.1757,1450.0,1450.0,
1751573202.7757859,1450.0,790.45044,1402.2065,1393.002,
1751573202.7796757,768.23535,707.43146,452.7101,412.43973,
1751573202.7835658,0.0,645.91956,0.0,0.0,
1751573202.7874558,170.99432,690.8808,448.55032,468.19873,
1751573202.7913458,1152.707,781.95386,1404.4192,1433.7148,
1751573202.7952356,1450.0,798.7701,1450.0,1450.0,
1751573202.7991257,911.8812,722.9201,590.426,551.9258,
1751573202.8030157,0.0,647.8667,0.0,0.0,
1751573202.8069055,65.14069,673.091,311.63095,328.8012,
1751573202.8107955,1028.0016,769.1204,1300.9552,1331.4015,
1751573202.8146856,1450.0,806.3816,1450.0,1450.0,
1751573202.8185754,1047.5615,740.6214,732.30176,694.9521,
1751573202.8224654,81.77989,659.54956,0.0,0.0,
1751573202.8263555,0.0,672.56,185.24385,202.76811,
1751573202.8302453,892.4983,764.6066,1181.9142,1215.8121,
1751573202.8341353,1450.0,801.9563,1450.0,1450.0,
1751573202.8380253,1167.8417,739.02826,875.15106,844.3508,
1751573202.8419151,185.24385,657.9564,0.0,0.0,
1751573202.8458052,0.0,663.79785,76.115486,84.43508,
1751573202.8496952,743.18805,751.6847,1053.3145,1083.0526,
1751573202.8535852,1450.0,805.6736,1450.0,1450.0,
1751573202.8574750,1288.8298,763.1905,1020.036,986.93463,
1751573202.8613651,315.61374,673.9761,52.395775,14.426539,
1751573202.8652551,0.0,654.7702,0.0,0.0,
1751573202.8691449,595.4709,739.5593,915.06744,940.11475,
1751573202.8730350,1450.0,809.8334,1450.0,1450.0,
1751573202.8769250,1393.002,777.1745,1148.1047,1126.5092,
1751573202.8808148,449.6124,686.01294,157.01031,119.92614,
1751573202.8847048,0.0,649.54834,0.0,0.0,
1751573202.8885949,465.72055,722.47754,779.6527,798.5931,
1751573202.8924847,1404.0652,803.4609,1450.0,1450.0,
1751573202.8963747,1450.0,783.36993,1269.093,1249.6216,
1751573202.9002647,584.0536,690.43823,279.59164,236.75456,
1751573202.9041545,0.0,639.9896,0.0,0.0,
1751573202.9080446,324.02185,703.44867,631.493,653.88513,
1751573202.9119346,1298.7426,795.2298,1450.0,1450.0,
1751573202.9158247,1450.0,791.247,1377.5133,1366.0074,
1751573202.9197145,725.30975,704.5993,416.86505,373.31992,
1751573202.9236045,0.0,648.4862,0.0,0.0,
1751573202.9274945,202.32558,698.2268,488.3782,511.56686,
1751573202.9313843,1186.428,787.8838,1430.7056,1450.0,
1751573202.9352744,1450.0,796.11487,1450.0,1450.0,
1751573202.9391644,867.71655,716.7247,550.33264,514.6646,
1751573202.9430542,0.0,648.3977,0.0,0.0,
1751573202.9469442,88.32937,679.10944,352.07837,374.4705,
1751573202.9508343,1056.9431,774.3423,1332.2865,1364.5913,
1751573202.9547241,1450.0,808.5943,1450.0,1450.0,
1751573202.9586141,1011.98193,737.3466,700.08545,669.2852,
1751573202.9625041,55.40499,655.4782,0.0,0.0,
1751573202.9663939,2.0356467,676.1887,218.96478,243.48105,
1751573202.9702840,933.7423,772.7492,1217.2283,1254.6664,
1751573202.9741740,1450.0,813.63916,1450.0,1450.0,
1751573202.9780638,1148.1047,750.35706,848.6877,819.8346,
1751573202.9819539,167.45407,657.42535,0.0,0.0,
1751573202.9858439,0.0,659.54956,106.73869,117.890495,
1751573202.9897339,784.9631,754.6939,1094.2928,1126.0667,
1751573202.9936237,1450.0,810.71844,1450.0,1450.0,
1751573202.9975138,1264.8446,761.9514,996.0508,963.923,
1751573203.0014038,286.0526,669.5508,31.685284,0.0,
1751573203.0052936,0.0,653.7081,4.1597996,11.859855,
1751573203.0091836,650.07935,739.5593,958.7896,990.38635,
1751573203.0130737,1450.0,806.1161,1450.0,1450.0,
1751573203.0169635,1376.4512,773.0147,1129.2529,1108.8964,
1751573203.0208535,433.85828,687.075,138.95502,100.63175,
1751573203.0247436,0.0,655.0357,0.0,0.0,
1751573203.0286334,503.6898,725.39825,817.3564,851.07733,
1751573203.0325234,1425.3068,800.8057,1450.0,1450.0,
1751573203.0364134,1450.0,780.7148,1245.5503,1235.9916,
1751573203.0403032,569.096,691.8544,254.80986,221.79698,
1751573203.0441933,0.0,648.9288,0.0,0.0,
1751573203.0480833,368.36356,717.1672,670.3473,708.8476,
1751573203.0519733,1333.9681,801.9563,1450.0,1450.0,
1751573203.0558631,1450.0,791.07,1355.8292,1347.0671,
1751573203.0597532,714.15796,704.33374,387.65793,353.14044,
1751573203.0636432,0.0,649.63684,0.0,0.0,
1751573203.0675330,238.96722,697.5188,528.29456,560.5109,
1751573203.0714231,1224.7512,787.2642,1450.0,1450.0,
1751573203.0753131,1450.0,798.062,1450.0,1445.0437,
1751573203.0792029,861.6981,716.7247,532.18884,494.92767,
1751573203.0830929,0.0,648.57477,0.0,0.0,
1751573203.0869830,124.61698,690.1727,389.60507,418.19263,
1751573203.0908728,1110.3125,781.59985,1360.166,1392.7363,
1751573203.0947628,1450.0,804.34595,1450.0,1450.0,
1751573203.0986528,999.1485,733.2753,675.39215,648.2207,
1751573203.1025426,42.74858,655.4782,0.0,0.0,
1751573203.1064327,21.064518,672.29443,254.80986,280.21118,
1751573203.1103227,973.6587,761.6859,1250.4181,1286.9712,
1751573203.1142128,1450.0,805.4965,1450.0,1450.0,
1751573203.1181026,1130.2264,751.4191,820.2771,801.1597,
1751573203.1219926,148.4252,669.9933,0.0,0.0,
1751573203.1258826,0.0,676.8968,136.65385,153.20454,
1751573203.1297724,836.29675,763.456,1130.846,1169.0808,
1751573203.1336625,1450.0,810.80695,1450.0,1450.0,
1751573203.1375525,1249.7986,758.49963,967.99426,944.27454,
1751573203.1414423,270.03296,669.7278,10.443752,0.0,
1751573203.1453323,0.0,664.32886,29.207106,43.633644,
1751573203.1492224,695.92566,747.17084,998.0864,1043.4017,
1751573203.1531122,1450.0,801.1597,1450.0,1450.0,
1751573203.1570022,1352.2004,755.3134,1095.7975,1079.9548,
1751573203.1608922,401.64194,663.3553,107.800766,72.57523,
1751573203.1647820,0.0,645.56555,0.0,0.0,
1751573203.1686721,545.3763,731.4167,862.7602,906.0398,
1751573203.1725621,1445.6632,803.72644,1450.0,1450.0,
1751573203.1764519,1444.6896,779.21014,1216.8741,1206.9614,
1751573203.1803420,545.2878,688.75665,224.36366,192.58987,
1751573203.1842320,0.0,640.4321,0.0,0.0,
1751573203.1881220,411.02362,703.89124,710.2637,751.5962,
1751573203.1920118,1364.5913,791.5126,1450.0,1450.0,
1751573203.1959019,1450.0,787.6183,1329.5428,1323.0819,
1751573203.1997919,683.6233,699.3774,353.05194,324.02185,
1751573203.2036817,0.0,641.1402,0.0,0.0,
1751573203.2075717,273.21918,693.00494,561.75,598.74567,
1751573203.2114618,1255.9055,783.0159,1450.0,1450.0,
1751573203.2153516,1450.0,784.6091,1427.2539,1424.8641,
1751573203.2192416,831.87146,700.882,490.9449,465.1895,
1751573203.2231317,0.0,637.6,0.0,0.0,
1751573203.2270215,152.23097,680.8796,420.75934,452.88715,
1751573203.2309115,1140.8472,775.5814,1383.7087,1417.8722,
1751573203.2348015,1450.0,795.3183,1450.0,1450.0,
1751573203.2386913,966.1356,719.7339,631.75854,606.88824,
1751573203.2425814,19.913935,643.08734,0.0,0.0,
1751573203.2464714,41.686504,664.8599,284.6365,316.05627,
1751573203.2503614,1004.28186,762.2169,1276.793,1318.3025,
1751573203.2542512,1450.0,802.1333,1450.0,1450.0,
1751573203.2581413,1094.5583,734.2489,777.263,751.6847,
1751573203.2620313,117.713486,653.17706,0.0,0.0,
1751573203.2659211,0.0,670.3473,163.47128,186.57144,
1751573203.2698112,870.3717,762.3054,1159.2566,1201.5626,
1751573203.2737012,1450.0,805.6736,1450.0,1450.0,
1751573203.2775910,1215.4581,748.941,924.98016,894.711,
1751573203.2814810,233.47983,663.88635,0.0,0.0,
1751573203.2853711,0.0,656.1863,51.06818,64.25563,
1751573203.2892609,725.39825,743.01105,1024.9923,1062.0765,
1751573203.2931509,1450.0,804.34595,1450.0,1450.0,
1751573203.2970409,1324.9404,765.04913,1057.7397,1040.7465,
1751573203.3009307,362.52213,676.9853,79.1247,46.377342,
1751573203.3048208,0.0,656.98285,0.0,0.0,
1751573203.3087108,573.3443,734.86847,888.86957,922.32495,
1751573203.3126009,1450.0,802.3988,1450.0,1450.0,
1751573203.3164907,1418.6687,778.2366,1180.5865,1169.5233,
1751573203.3203807,496.07825,689.8187,189.04962,156.47928,
1751573203.3242707,0.0,650.16785,0.0,0.0,
1751573203.3281605,427.75134,719.9994,736.19604,774.69635,
1751573203.3320506,1377.6903,802.3988,1450.0,1450.0,
1751573203.3359406,1450.0,794.9643,1301.3978,1290.1575,
1751573203.3398304,637.1574,706.72345,316.5873,282.60086,
1751573203.3437204,0.0,653.5311,0.0,0.0,
1751573203.3476105,292.8676,705.7499,595.4709,627.95276,
1751573203.3515003,1272.9872,786.8217,1450.0,1450.0,
1751573203.3553903,1450.0,794.6988,1407.0745,1398.6663,
1751573203.3592803,783.45844,717.1672,459.08258,421.46738,
1751573203.3631701,0.0,656.80585,0.0,0.0,
1751573203.3670602,175.06561,700.6165,458.90558,492.361,
1751573203.3709502,1161.4692,787.7068,1407.9595,1439.6448,
1751573203.3748403,1450.0,804.6115,1450.0,1450.0,
1751573203.3787301,925.95374,728.319,605.2951,580.3363,
1751573203.3826201,0.0,651.4954,0.0,0.0,
1751573203.3865101,64.43264,680.1715,325.792,356.76923,
1751573203.3903999,1030.1257,775.40436,1310.2484,1346.89,
1751573203.3942900,1450.0,806.2046,1450.0,1450.0,
1751573203.3981800,1066.9443,732.5673,751.9502,732.9213,
1751573203.4020698,93.55124,648.9288,0.0,0.0,
1751573203.4059598,0.0,667.95764,193.56345,214.71648,
1751573203.4098499,903.91565,763.72156,1192.2694,1230.5042,
1751573203.4137397,1450.0,810.89545,1450.0,1450.0,
1751573203.4176297,1189.7028,751.3306,894.888,871.1683,
1751573203.4215198,207.45895,665.922,0.0,0.0,
1751573203.4254096,0.0,668.5772,73.99133,90.45352,
1751573203.4292996,754.6939,756.81805,1056.7661,1098.4526,
1751573203.4331896,1450.0,808.8598,1450.0,1450.0,
1751573203.4370794,1299.0967,765.04913,1020.1245,1004.6359,
1751573203.4409695,329.59775,674.4186,52.7498,21.064518,
1751573203.4448595,0.0,651.1414,0.0,0.0,
1751573203.4487495,601.8434,731.3282,917.89966,953.56775,
1751573203.4526393,1450.0,796.11487,1450.0,1450.0,
1751573203.4565294,1397.7812,764.7836,1151.999,1131.9081,
1751573203.4604194,461.29526,678.13586,161.96667,124.70549,
1751573203.4643092,0.0,649.1058,0.0,0.0,
1751573203.4681993,464.21594,729.6466,766.2882,798.5046,
1751573203.4720893,1400.4364,808.5058,1450.0,1450.0,
1751573203.4759791,1450.0,786.5562,1275.554,1256.9675,
1751573203.4798691,609.4549,690.7038,285.7871,244.98566,
1751573203.4837592,0.0,643.9724,0.0,0.0,
1751573203.4876490,321.9862,712.8304,623.3504,651.1414,
1751573203.4915390,1297.5035,799.65515,1450.0,1450.0,
1751573203.4954290,1450.0,792.92865,1380.434,1371.3179,
1751573203.4993188,748.8525,706.1039,418.45816,381.2855,
1751573203.5032089,0.0,645.56555,0.0,0.0,
1751573203.5070989,202.5026,692.4739,482.35977,509.70822,
1751573203.5109890,1189.4373,781.1573,1426.8113,1450.0,
1751573203.5148787,1450.0,799.3896,1450.0,1450.0,
1751573203.5187688,883.11664,722.5661,554.6695,522.1876,
1751573203.5226588,0.0,647.9552,0.0,0.0,
1751573203.5265486,85.143135,680.6141,345.3519,359.5129,
1751573203.5304387,1054.0225,775.40436,1327.0647,1355.6522,
1751573203.5343287,1450.0,801.9563,1450.0,1450.0,
1751573203.5382185,1021.4521,728.4075,700.9705,663.97485,
1751573203.5421085,62.30849,648.3092,0.0,0.0,
1751573203.5459986,0.0,665.745,212.68083,221.53146,
1751573203.5498884,921.1744,758.1456,1208.0236,1234.3099,
1751573203.5537784,1450.0,798.062,1450.0,1450.0,
1751573203.5576684,1154.2117,736.28455,851.6084,810.0989,
1751573203.5615582,172.32191,655.2127,0.0,0.0,
1751573203.5654483,0.0,661.49664,96.82598,104.88006,
1751573203.5693383,769.74,755.579,1081.725,1107.1263,
1751573203.5732284,1450.0,809.1253,1450.0,1450.0,
1751573203.5771182,1267.6769,753.01227,986.8461,952.0631,
1751573203.5810082,288.08826,658.6645,29.384117,0.0,
1751573203.5848982,0.0,644.0609,0.3540255,4.867851,
1751573203.5887880,626.1826,735.488,947.19525,971.71155,
1751573203.5926781,1450.0,810.3644,1450.0,1450.0,
1751573203.5965681,1371.8489,776.555,1119.0747,1090.133,
1751573203.6004579,419.78577,681.67615,133.11359,93.28572,
1751573203.6043479,0.0,645.123,0.0,0.0,
1751573203.6082380,478.37698,721.32697,797.7965,818.24146,
1751573203.6121278,1418.6687,806.2046,1450.0,1450.0,
1751573203.6160178,1450.0,788.1493,1240.1514,1221.6536,
1751573203.6199079,532.9854,687.252,244.54312,207.63597,
1751573203.6237977,0.0,634.67926,0.0,0.0,
1751573203.6276877,347.0335,711.5028,662.9128,681.94165,
1751573203.6315777,1315.5588,796.55743,1450.0,1450.0,
1751573203.6354675,1450.0,788.3263,1356.7142,1348.1292,
1751573203.6393576,704.24524,707.697,388.543,349.4232,
1751573203.6432476,0.0,649.99084,0.0,0.0,
1751573203.6471376,230.55911,705.1303,527.4095,549.4476,
1751573203.6510274,1215.9006,790.8045,1450.0,1450.0,
1751573203.6549175,1450.0,798.6816,1450.0,1449.292,
1751573203.6588075,846.56354,722.9201,536.17163,500.23804,
1751573203.6626973,0.0,651.6725,0.0,0.0,
1751573203.6665874,107.712265,691.4118,393.14532,413.14777,
1751573203.6704774,1079.5123,789.91943,1360.166,1387.78,
1751573203.6743672,1450.0,813.1081,1450.0,1450.0,
1751573203.6782572,996.0508,733.6294,685.12787,662.1162,
1751573203.6821473,42.30605,645.3885,0.0,0.0,
1751573203.6860371,14.957578,668.04614,254.63286,280.12268,
1751573203.6899271,957.90454,773.6343,1249.0021,1286.7057,
1751573203.6938171,1450.0,811.7805,1450.0,1450.0,
1751573203.6977069,1131.2886,737.1696,839.483,812.1345,
1751573203.7015970,150.54935,655.1242,0.0,0.0,
1751573203.7054870,0.0,673.445,130.81242,150.10681,
1751573203.7093771,811.42645,762.925,1127.9253,1166.691,
1751573203.7132668,1450.0,810.89545,1450.0,1450.0,
1751573203.7171569,1245.0193,759.2962,973.8357,955.42633,
1751573203.7210469,264.9881,663.4438,14.692059,0.0,
1751573203.7249367,0.0,652.82306,25.489838,39.473846,
1751573203.7288268,666.71857,744.4271,993.92664,1039.95,
1751573203.7327168,1450.0,807.6207,1450.0,1450.0,
1751573203.7366066,1356.7142,770.3595,1108.6309,1094.6469,
1751573203.7404966,400.8454,678.48987,118.86407,84.08106,
1751573203.7443867,0.0,650.5219,0.0,0.0,
1751573203.7482765,522.9842,733.8949,848.9532,898.0742,
1751573203.7521665,1439.2908,817.1794,1450.0,1450.0,
1751573203.7560565,1443.185,796.99994,1225.1938,1220.3259,
1751573203.7599463,534.313,698.9349,232.59476,204.53824,
1751573203.7638364,0.0,656.0978,0.0,0.0,
1751573203.7677264,384.4717,727.78796,699.3774,749.472,
1751573203.7716165,1346.713,804.9655,1450.0,1450.0,
1751573203.7755063,1450.0,793.45966,1332.729,1335.1188,
1751573203.7793963,679.10944,709.55566,358.1853,340.74954,
1751573203.7832863,0.0,652.3805,0.0,0.0,
1751573203.7871761,253.21675,706.1039,554.40393,593.43524,
1751573203.7910662,1237.4962,796.3804,1450.0,1450.0,
1751573203.7949562,1450.0,799.4781,1435.308,1433.7148,
1751573203.7988460,823.5519,712.2993,505.63693,481.5632,
1751573203.8027360,0.0,646.6276,0.0,0.0,
1751573203.8066261,136.38834,690.6153,418.9007,450.23193,
1751573203.8105159,1118.1896,787.3527,1379.9915,1414.4204,
1751573203.8144059,1450.0,806.82416,1450.0,1450.0,
1751573203.8182960,962.06433,732.6558,647.5127,622.2883,
1751573203.8221858,20.799,653.88513,0.0,0.0,
1751573203.8260758,34.6945,675.48065,278.61807,307.02863,
1751573203.8299658,985.87256,774.4308,1270.332,1309.1864,
1751573203.8338556,1450.0,817.3564,1450.0,1450.0,
1751573203.8377457,1106.9492,750.26855,798.8586,775.13885,
1751573203.8416357,126.82964,657.9564,0.0,0.0,
1751573203.8455257,0.0,667.51514,152.85051,172.41043,
1751573203.8494155,851.6084,766.1112,1150.3174,1188.5521,
1751573203.8533056,1450.0,816.2943,1450.0,1450.0,
1751573203.8571956,1224.3087,764.16406,931.79517,913.73987,
1751573203.8610854,242.59598,666.3645,0.0,0.0,
1751573203.8649755,0.0,649.4598,41.863518,53.280838,
1751573203.8688655,706.90045,745.3122,1010.83136,1050.2167,
1751573203.8727553,1450.0,815.5863,1450.0,1450.0,
1751573203.8766453,1332.021,771.33307,1067.2985,1054.819,
1751573203.8805354,371.37277,676.6313,88.06385,56.024536,
1751573203.8844252,0.0,655.3897,0.0,0.0,
1751573203.8883152,558.3867,734.51447,871.87634,913.0318,
1751573203.8922052,1450.0,801.6023,1450.0,1450.0,
1751573203.8960950,1426.2803,772.9262,1198.9073,1185.543,
1751573203.8999851,508.29214,687.6946,204.89227,171.08282,
1751573203.9038751,0.0,653.79663,0.0,0.0,
1751573203.9077652,416.06848,721.681,726.6374,765.6687,
1751573203.9116549,1368.0431,801.8678,1450.0,1450.0,
1751573203.9155450,1450.0,790.18494,1306.3541,1303.522,
1751573203.9194350,655.0357,696.36816,325.8805,298.2665,
1751573203.9233248,0.0,640.6092,0.0,0.0,
1751573203.9272149,284.2825,703.18317,581.57544,617.59753,
1751573203.9311049,1265.4642,797.08844,1450.0,1450.0,
1751573203.9349947,1450.0,802.57587,1413.1814,1408.756,
1751573203.9388847,796.91144,716.63617,466.87115,438.99164,
1751573203.9427748,0.0,653.08856,0.0,0.0,
1751573203.9466646,162.94025,692.0314,447.9308,470.05737,
1751573203.9505546,1147.0427,781.68835,1400.4364,1427.9619,
1751573203.9544446,1450.0,798.5931,1450.0,1450.0,
1751573203.9583344,937.1055,719.1143,613.0837,591.3996,
1751573203.9622245,1.7701275,655.5668,0.0,0.0,
1751573203.9661145,57.44064,688.84515,306.4976,331.7219,
1751573203.9700046,1021.89465,771.06757,1294.5828,1329.8083,
1751573203.9738944,1450.0,799.83215,1450.0,1450.0,
1751573203.9777844,1069.4226,745.1352,765.6687,740.09033,
1751573203.9816744,98.5076,674.94965,0.0,0.0,
1751573203.9855642,0.0,690.8808,175.77367,200.90948,
1751573203.9894543,875.6821,774.3423,1174.0371,1216.1661,
1751573203.9933443,1450.0,811.515,1450.0,1450.0,
1751573203.9972341,1194.2166,764.42957,901.08344,886.7454,
1751573204.0011241,210.20265,684.77386,0.0,0.0,
1751573204.0050142,0.0,676.8083,67.353355,84.78911,
1751573204.0089040,745.84326,755.1364,1046.3224,1093.4963,
1751573204.0127940,1450.0,816.7369,1450.0,1450.0,
1751573204.0166841,1309.0094,782.30786,1045.7914,1028.9751,
1751573204.0205739,337.2093,694.8636,69.21199,34.25197,
1751573204.0244639,0.0,665.922,0.0,0.0,
1751573204.0283539,595.82495,741.8605,906.74786,951.7091,
1751573204.0322437,1450.0,815.7633,1450.0,1450.0,
1751573204.0361338,1412.4733,783.547,1170.4968,1162.6198,
1751573204.0400238,490.50235,693.18195,177.27827,148.69072,
1751573204.0439138,0.0,664.6829,0.0,0.0,
1751573204.0478036,455.89636,730.4431,759.4732,800.00916,
1751573204.0516937,1396.0111,804.16895,1450.0,1450.0,
1751573204.0555837,1450.0,792.1321,1287.2368,1282.1919,
1751573204.0594735,624.4125,706.90045,300.9217,273.83875,
1751573204.0633636,0.0,658.1334,0.0,0.0,
1751573204.0672536,319.41953,720.2649,615.1193,650.16785,
1751573204.0711434,1295.9104,800.8057,1450.0,1450.0,
1751573204.0750334,1450.0,794.7873,1391.0548,1387.249,
1751573204.0789235,767.52734,713.0074,435.18585,407.48337,
1751573204.0828133,0.0,655.6553,0.0,0.0,
1751573204.0867033,194.71404,702.74066,474.92523,504.8404,
1751573204.0905933,1182.0027,789.38837,1419.9078,1450.0,
1751573204.0944831,1450.0,800.9827,1450.0,1450.0,
1751573204.0983732,908.872,726.4603,575.29144,546.17285,
1751573204.1022632,0.0,657.5139,0.0,0.0,
1751573204.1061532,78.94769,686.45544,333.93457,358.98187,
1751573204.1100430,1049.5972,777.70557,1317.683,1352.82,
1751573204.1139331,1450.0,806.73566,1450.0,1450.0,
1751573204.1178231,1043.1362,739.7363,726.1063,688.4911,
1751573204.1217129,75.23042,660.61163,0.0,0.0,
1751573204.1256030,0.0,673.445,201.88306,218.69926,
1751573204.1294930,911.43866,763.3675,1201.2971,1231.4778,
1751573204.1333828,1450.0,806.3816,1450.0,1450.0,
1751573204.1372728,1168.0187,750.7111,860.90155,837.0048,
1751573204.1411629,185.33235,665.568,0.0,0.0,
1751573204.1450527,0.0,661.14264,88.50638,100.277725,
1751573204.1489427,774.78485,748.587,1070.7501,1105.0022,
1751573204.1528327,1450.0,807.5322,1450.0,1450.0,
1751573204.1567225,1284.0505,764.6066,1002.1577,982.86334,
1751573204.1606126,310.12634,674.1531,39.82787,6.6379786,
1751573204.1645026,0.0,653.5311,0.0,0.0,
1751573204.1683927,628.5723,736.9926,934.6274,970.0299,
1751573204.1722825,1450.0,809.1253,1450.0,1450.0,
1751573204.1761725,1382.6466,775.5814,1133.6782,1115.6229,
1751573204.1800625,441.46982,682.38416,145.59299,111.25252,
1751573204.1839523,0.0,648.0437,0.0,0.0,
1751573204.1878424,476.34134,723.3626,787.6183,814.78973,
1751573204.1917324,1411.4998,805.6736,1450.0,1450.0,
1751573204.1956222,1450.0,781.51135,1258.8262,1239.6204,
1751573204.1995122,575.911,692.65094,267.28928,227.63841,
1751573204.2034023,0.0,652.55756,0.0,0.0,
1751573204.2072921,339.42197,714.866,642.91034,663.79785,
1751573204.2111821,1309.0979,798.8586,1450.0,1450.0,
1751573204.2150722,1450.0,792.84015,1368.3086,1357.1569,
1751573204.2189620,734.51447,704.33374,400.8454,360.8405,
1751573204.2228520,0.0,641.93677,0.0,0.0,
1751573204.2267420,208.78654,691.0578,503.5128,523.78076,
1751573204.2306318,1195.5442,781.95386,1438.8481,1450.0,
1751573204.2345219,1450.0,788.50336,1450.0,1450.0,
1751573204.2384119,863.4682,704.5108,541.92456,506.2565,
1751573204.2423019,0.0,631.316,0.0,0.0,
1751573204.2461917,96.73747,665.47943,362.34512,382.70157,
1751573204.2500818,1066.3248,759.56177,1340.3406,1371.4064,
1751573204.2539718,1450.0,783.36993,1450.0,1450.0,
1751573204.2578616,999.50256,708.405,692.3854,656.1863,
1751573204.2617517,47.97046,631.316,0.0,0.0,
1751573204.2656417,0.26551914,649.99084,231.62119,252.5972,
1751573204.2695315,927.6354,741.595,1228.911,1263.0746,
1751573204.2734215,1450.0,786.11365,1450.0,1450.0,
1751573204.2773116,1134.7402,728.23047,834.1726,810.54144,
1751573204.2812014,156.30226,644.2379,0.0,0.0,
1751573204.2850914,0.0,648.8403,112.49161,126.03308,
1751573204.2889814,792.1321,739.02826,1100.8423,1136.0679,
1751573204.2928712,1450.0,797.35394,1450.0,1450.0,
1751573204.2967613,1253.6044,753.3663,977.1989,951.5321,
1751573204.3006513,275.25485,664.9484,22.038088,0.0,
1751573204.3045413,0.0,647.5127,9.735702,17.524263,
1751573204.3084311,642.99884,729.29254,963.746,997.20135,
1751573204.3123212,1450.0,799.0356,1450.0,1450.0,
1751573204.3162112,1365.0339,763.279,1115.7114,1094.0273,
1751573204.3201010,411.8202,664.8599,127.6262,90.276505,
1751573204.3239911,0.0,637.954,0.0,0.0,
1751573204.3278811,502.4507,720.3534,821.78174,855.8567,
1751573204.3317709,1426.8998,794.6103,1450.0,1450.0,
1751573204.3356609,1450.0,774.87335,1240.8594,1227.849,
1751573204.3395510,551.3947,686.721,248.61441,213.91992,
1751573204.3434408,0.0,643.6184,0.0,0.0,
1751573204.3473308,361.8141,713.3614,675.30365,710.3522,
1751573204.3512208,1329.5428,797.885,1450.0,1450.0,
1751573204.3551106,1450.0,792.3976,1349.2798,1342.2877,
1751573204.3590007,695.92566,703.53723,377.21417,345.6174,
1751573204.3628907,0.0,641.4057,0.0,0.0,
1751573204.3667808,240.38333,695.4831,535.6406,568.565,
1751573204.3706706,1224.4857,786.9987,1450.0,1450.0,
1751573204.3745606,1450.0,791.6011,1444.5126,1438.0516,
1751573204.3784506,836.6508,705.7499,519.3554,483.33334,
1751573204.3823404,0.0,636.5379,0.0,0.0,
1751573204.3862305,120.368675,685.3934,392.08325,417.5731,
1751573204.3901205,1096.063,784.6091,1362.6442,1395.4801,
1751573204.3940103,1450.0,805.9391,1450.0,1450.0,
1751573204.3979003,980.7392,731.1512,665.3909,627.77576,
1751573204.4017904,31.77379,650.07935,0.0,0.0,
1751573204.4056802,20.444973,669.1967,258.0846,279.0606,
1751573204.4095702,963.569,766.1997,1253.8699,1286.4402,
1751573204.4134603,1450.0,805.054,1450.0,1450.0,
1751573204.4173501,1109.693,741.0639,809.5679,780.6263,
1751573204.4212401,133.55612,661.40814,0.0,0.0,
1751573204.4251301,0.0,667.95764,135.76878,150.72636,
1751573204.4290199,822.40125,754.6939,1129.0759,1163.1509,
1751573204.4329100,1450.0,803.81494,1450.0,1450.0,
1751573204.4368000,1235.5491,751.6847,951.44354,928.78595,
1751573204.4406900,256.31448,665.1254,5.664408,0.0,
1751573204.4445798,0.0,660.34607,26.817432,40.624428,
1751573204.4484699,677.3393,750.00305,989.4128,1033.4005,
1751573204.4523599,1450.0,810.3644,1450.0,1450.0,
1751573204.4562497,1342.9072,766.3767,1089.779,1069.5111,
1751573204.4601398,382.9671,676.0117,105.4996,68.94647,
1751573204.4640298,0.0,649.81384,0.0,0.0,
1751573204.4679196,527.144,730.2661,853.99805,890.46265,
1751573204.4718096,1443.7161,807.26666,1450.0,1450.0,
1751573204.4756997,1434.3344,776.6435,1219.8834,1196.2522,
1751573204.4795895,513.337,686.36694,224.36366,182.32314,
1751573204.4834795,0.0,649.72534,0.0,0.0,
1751573204.4873695,393.8534,717.4327,712.8304,740.7099,
1751573204.4912593,1352.289,796.2919,1450.0,1450.0,
1751573204.4951494,1450.0,783.8125,1328.1267,1316.3553,
1751573204.4990394,666.0105,700.882,350.30826,313.22406,
1751573204.5029294,0.0,646.00806,0.0,0.0,
1751573204.5068192,267.20074,703.71423,567.94543,595.91345,
1751573204.5107093,1249.3561,798.3275,1450.0,1450.0,
1751573204.5145993,1450.0,802.8414,1426.1033,1422.917,
1751573204.5184891,806.64716,716.7247,491.74142,460.6757,
1751573204.5223792,0.0,646.8046,0.0,0.0,
1751573204.5262692,137.89294,687.3405,417.4846,447.66525,
1751573204.5301590,1116.6849,780.7148,1380.788,1415.6595,
1751573204.5340490,1450.0,803.63794,1450.0,1450.0,
1751573204.5379391,949.4079,722.47754,637.8655,602.90546,
1751573204.5418289,13.718489,634.3252,0.0,0.0,
1751573204.5457189,36.64164,663.97485,281.09625,302.6918,
1751573204.5496089,986.22656,767.88135,1275.1115,1307.9473,
1751573204.5534987,1450.0,808.32874,1450.0,1450.0,
1751573204.5573888,1077.6537,748.587,776.2894,746.72833,
1751573204.5612788,107.44675,665.1254,0.0,0.0,
1751573204.5651689,0.0,675.30365,157.36433,173.561,
1751573204.5690587,848.9532,766.4652,1151.9105,1185.897,
1751573204.5729487,1450.0,812.046,1450.0,1450.0,
1751573204.5768387,1211.9178,757.5261,923.21,896.1271,
1751573204.5807285,229.49704,668.5772,0.0,0.0,
1751573204.5846186,0.0,662.2047,43.722153,58.060184,
1751573204.5885086,709.2016,746.81683,1013.221,1052.2523,
1751573204.5923984,1450.0,804.523,1450.0,1450.0,
1751573204.5962884,1329.7198,761.06635,1065.9708,1046.8534,
1751573204.6001785,368.8946,671.23236,86.205215,50.979675,
1751573204.6040683,0.0,649.1058,0.0,0.0,
1751573204.6079583,558.9178,733.0098,879.13385,914.1824,
1751573204.6118484,1450.0,808.9483,1450.0,1450.0,
1751573204.6157382,1427.1654,777.70557,1203.9523,1177.6659,
1751573204.6196282,509.26572,691.2348,208.87506,164.09082,
1751573204.6235182,0.0,659.461,0.0,0.0,
1751573204.6274080,415.62595,730.0006,733.45233,768.05835,
1751573204.6312981,1370.2557,801.0712,1450.0,1450.0,
1751573204.6351881,1450.0,782.39636,1309.6289,1297.769,
1751573204.6390781,642.73334,704.8648,328.09314,291.00897,
1751573204.6429679,0.0,655.6553,0.0,0.0,
1751573204.6468580,284.90204,706.2809,590.6916,622.2883,
1751573204.6507480,1264.4906,794.5218,1450.0,1450.0,
1751573204.6546378,1450.0,798.5046,1409.5526,1401.056,
1751573204.6585279,786.5562,714.9545,464.03894,426.68924,
1751573204.6624179,0.0,651.4069,0.0,0.0,
1751573204.6663077,161.70116,697.6073,438.2836,464.39297,
1751573204.6701977,1144.2104,788.68036,1396.1881,1427.7849,
1751573204.6740878,1450.0,797.885,1450.0,1450.0,
1751573204.6779776,929.40546,719.6454,611.31354,575.46844,
1751573204.6818676,0.0,648.66327,0.0,0.0,
1751573204.6857576,53.900383,676.9853,300.39066,325.08392,
1751573204.6896474,1011.6279,771.95264,1291.4851,1325.383,
1751573204.6935375,1450.0,800.45166,1450.0,1450.0,
1751573204.6974275,1062.165,734.957,751.3306,728.14197,
1751573204.7013175,95.85241,661.23114,0.0,0.0,
1751573204.7052073,0.0,675.30365,174.97711,194.80254,
1751573204.7090974,870.1947,765.7572,1170.4968,1209.7052,
1751573204.7129874,1450.0,807.26666,1450.0,1450.0,
1751573204.7168772,1188.3751,748.587,898.6053,872.7614,
1751573204.7207673,208.07849,657.5139,0.0,0.0,
1751573204.7246573,0.0,651.8495,56.998108,74.52237,
1751573204.7285471,723.7167,734.0719,1031.5419,1073.7594,
1751573204.7324371,1450.0,792.3091,1450.0,1450.0,
1751573204.7363272,1305.1151,763.1905,1036.1442,1009.8578,
1751573204.7402170,335.7932,676.5428,65.67173,28.853079,
1751573204.7441070,0.0,650.9644,0.0,0.0,
1751573204.7479970,578.21216,735.93054,892.4098,925.95374,
1751573204.7518868,1450.0,804.6115,1450.0,1450.0,
1751573204.7557769,1407.163,766.8193,1174.8336,1150.4059,
1751573204.7596669,474.04016,674.2416,181.26106,140.37111,
1751573204.7635570,0.0,641.58276,0.0,0.0,
1751573204.7674468,434.65482,714.24646,749.118,781.4228,
1751573204.7713368,1384.1512,786.29065,1450.0,1450.0,
1751573204.7752268,1450.0,776.9975,1291.1311,1281.2184,
1751573204.7791166,612.0216,698.2268,305.2585,272.2456,
1751573204.7830067,0.0,646.09656,0.0,0.0,
1751573204.7868967,295.08026,708.051,604.32153,633.7057,
1751573204.7907865,1274.2263,800.8942,1450.0,1450.0,
1751573204.7946765,1450.0,794.6103,1393.7985,1386.8064,
1751573204.7985666,755.3134,704.42224,438.7261,404.47415,
1751573204.8024564,0.0,644.592,0.0,0.0,
1751573204.8063464,171.34834,693.18195,456.16187,479.7931,
1751573204.8102365,1152.7955,787.0872,1410.2606,1440.8838,
1751573204.8141263,1450.0,797.7965,1450.0,1450.0,
1751573204.8180163,895.6846,717.2557,578.03516,542.19006,
1751573204.8219063,0.0,650.9644,0.0,0.0,
1751573204.8257961,68.14991,687.429,317.38388,338.3599,
1751573204.8296862,1027.1166,779.12164,1304.4955,1337.5084,
1751573204.8335762,1450.0,803.72644,1450.0,1450.0,
1751573204.8374662,1048.0925,726.6374,731.77075,694.5096,
1751573204.8413560,84.16956,651.0529,0.0,0.0,
1751573204.8452461,0.0,683.5348,193.38644,210.11414,
1751573204.8491361,888.69257,776.0239,1190.0568,1222.5386,
1751573204.8530259,1450.0,812.5771,1450.0,1450.0,
1751573204.8569160,1166.691,737.4351,875.32806,848.0681,
1751573204.8608060,187.72203,649.1943,0.0,0.0,
1751573204.8646958,0.0,664.8599,80.098274,92.13514,
1751573204.8685858,739.47076,764.6951,1059.6869,1095.4435,
1751573204.8724759,1450.0,822.7553,1450.0,1450.0,
1751573204.8763657,1286.0862,766.6423,1017.0268,996.93585,
1751573204.8802557,311.54245,674.59564,50.094612,15.754135,
1751573204.8841457,0.0,656.80585,0.0,0.0,
1751573204.8880355,592.63873,740.00183,922.14795,959.4091,
1751573204.8919256,1450.0,808.15173,1450.0,1450.0,
1751573204.8958156,1388.488,768.5009,1158.7255,1132.0851,
1751573204.8997056,440.67325,674.4186,163.55978,123.11237,
1751573204.9035954,0.0,639.01605,0.0,0.0,
1751573204.9074855,454.48026,711.06024,782.6619,811.07245,
1751573204.9113755,1397.3387,793.5482,1450.0,1450.0,
1751573204.9152653,1450.0,781.59985,1273.1643,1257.8527,
1751573204.9191554,584.3191,695.92566,284.548,246.13625,
1751573204.9230454,0.0,649.4598,0.0,0.0,
1751573204.9269352,320.7471,708.3165,635.56433,663.53235,
1751573204.9308252,1293.0782,794.6988,1450.0,1450.0,
1751573204.9347153,1450.0,796.4689,1379.4604,1374.4155,
1751573204.9386051,735.3995,709.4671,419.87427,388.6315,
1751573204.9424951,0.0,640.3436,0.0,0.0,
1751573204.9463851,199.58188,699.73145,487.2276,517.6738,
1751573204.9502749,1183.0648,802.66437,1427.1654,1450.0,
1751573204.9541650,1450.0,815.05524,1450.0,1450.0,
1751573204.9580550,877.3637,731.2397,565.8213,533.3394,
1751573204.9619451,0.0,654.9472,0.0,0.0,
1751573204.9658349,80.4523,696.89923,346.41397,374.6475,
1751573204.9697249,1042.6051,786.37915,1328.1267,1364.2373,
1751573204.9736149,1450.0,806.73566,1450.0,1450.0,
1751573204.9775047,1014.1946,742.65704,708.6706,678.66693,
1751573204.9813948,64.07862,662.5588,0.0,0.0,
1751573204.9852848,0.0,671.6749,213.03485,234.63042,
1751573204.9891746,883.6477,784.52057,1209.7937,1246.7008,
1751573204.9930646,1450.0,850.5463,1450.0,1450.0,
1751573204.9969547,1111.9941,790.539,854.8831,826.20703,
1751573205.0008445,143.82286,699.1119,0.0,0.0,
1751573205.0047345,0.0,707.25446,96.29494,109.6594,
1751573205.0086246,713.1844,796.73444,1081.194,1116.3309,
1751573205.0125144,1450.0,850.19226,1450.0,1450.0,
1751573205.0164044,1230.0616,808.8598,990.5634,970.915,
1751573205.0202944,244.01208,723.2741,33.632423,0.0,
1751573205.0241845,0.0,704.5993,0.0,4.867851,
1751573205.0280743,565.7328,780.1837,932.85724,979.32306,
1751573205.0319643,1450.0,848.0681,1450.0,1450.0,
1751573205.0358543,1360.0775,819.9231,1130.138,1113.6758,
1751573205.0397441,383.49814,721.76953,139.84007,105.94214,
1751573205.0436342,0.0,674.0646,0.0,0.0,
1751573205.0475242,445.2756,753.01227,799.65515,838.77496,
1751573205.0514140,1396.5421,842.4922,1450.0,1450.0,
1751573205.0553041,1450.0,824.3484,1252.7192,1241.302,
1751573205.0591941,540.774,729.46954,261.53635,229.0545,
1751573205.0630839,0.0,672.8255,0.0,0.0,
1751573205.0669739,337.1208,721.32697,658.8415,688.4911,
1751573205.0708640,1305.2921,793.01715,1450.0,1450.0,
1751573205.0747538,1450.0,794.7873,1366.0074,1356.3602,
1751573205.0786438,714.33496,717.52124,401.0224,364.73477,
1751573205.0825338,0.0,650.16785,0.0,0.0,
1751573205.0864236,219.93835,702.2096,511.65536,535.37506,
1751573205.0903137,1202.8901,795.58386,1441.4149,1450.0,
1751573205.0942037,1450.0,796.73444,1450.0,1450.0,
1751573205.0980937,879.04535,708.051,543.9602,508.38065,
1751573205.1019835,0.0,633.8827,0.0,0.0,
1751573205.1058736,108.951355,678.04736,370.6647,393.14532,
1751573205.1097636,1089.071,776.3779,1346.89,1376.3627,
1751573205.1136534,1450.0,793.7252,1450.0,1450.0,
1751573205.1175435,1025.2579,717.4327,690.0842,665.3024,
1751573205.1214335,58.237198,636.00684,0.0,0.0,
1751573205.1253233,10.355247,649.63684,237.46262,259.85474,
1751573205.1292133,961.35626,749.295,1234.5754,1270.863,
1751573205.1331034,1450.0,797.9735,1450.0,1450.0,
1751573205.1369932,1151.0255,731.59375,835.3232,809.3908,
1751573205.1408832,167.18855,637.2459,0.0,0.0,
1751573205.1447732,0.0,634.85626,122.22731,133.11359,
1751573205.1486630,821.1622,729.11554,1113.6758,1145.4496,
1751573205.1525531,1450.0,793.5482,1450.0,1450.0,
1751573205.1564431,1265.5527,748.587,978.79205,949.4964,
1751573205.1603332,290.47794,658.2219,20.799,0.0,
1751573205.1642230,0.0,647.42413,13.806995,21.77257,
1751573205.1681130,672.914,731.50525,971.97705,1003.83936,
1751573205.1720030,1450.0,795.58386,1450.0,1450.0,
1751573205.1758928,1373.973,757.7031,1117.6586,1095.7975,
1751573205.1797829,435.00885,655.3897,129.48483,90.89605,
1751573205.1836729,0.0,628.39526,0.0,0.0,
1751573205.1875627,520.77155,720.61896,825.5875,859.574,
1751573205.1914527,1433.9803,801.33673,1450.0,1450.0,
1751573205.1953428,1450.0,776.555,1237.6732,1225.9019,
1751573205.1992326,568.47644,684.1543,245.6052,211.53024,
1751573205.2031226,0.0,635.91833,0.0,0.0,
1751573205.2070127,378.9843,702.1211,680.7026,713.71545,
1751573205.2109025,1338.6589,788.4148,1450.0,1450.0,
1751573205.2147925,1450.0,777.88257,1348.1292,1340.1636,
1751573205.2186825,713.0959,692.65094,377.7452,344.0243,
1751573205.2225726,0.0,637.954,0.0,0.0,
1751573205.2264624,244.98566,695.92566,532.5429,563.69714,
1751573205.2303524,1232.2743,789.91943,1450.0,1450.0,
1751573205.2342424,1450.0,794.5218,1446.2827,1439.9988,
1751573205.2381322,853.64404,708.9361,522.5417,485.81152,
1751573205.2420223,0.0,637.6885,0.0,0.0,
1751573205.2459123,121.34225,673.8876,388.18896,414.65237,
1751573205.2498021,1102.3469,767.2618,1362.4672,1393.0905,
1751573205.2536922,1450.0,792.84015,1450.0,1450.0,
1751573205.2575822,992.3335,713.53845,656.62885,632.7321,
1751573205.2614720,39.82787,630.962,0.0,0.0,
1751573205.2653620,18.940365,659.90356,254.27882,273.3077,
1751573205.2692521,965.7816,755.0479,1249.6216,1281.6609,
1751573205.2731419,1450.0,799.4781,1450.0,1450.0,
1751573205.2770319,1120.2252,747.08234,809.0368,784.078,
1751573205.2809219,142.49527,663.2668,0.0,0.0,
1751573205.2848117,0.0,664.5944,134.5297,145.94702,
1751573205.2887018,823.1093,754.6939,1125.4471,1157.6635,
1751573205.2925918,1450.0,800.36316,1450.0,1450.0,
1751573205.2964818,1247.1434,742.126,954.5413,932.50323,
1751573205.3003716,269.32492,655.9208,5.841421,0.0,
1751573205.3042617,0.0,656.89435,27.968016,37.261185,
1751573205.3081517,672.47144,753.2778,991.0059,1028.0901,
1751573205.3120415,1450.0,811.42645,1450.0,1450.0,
1751573205.3159316,1349.1028,760.3583,1097.7446,1071.9008,
1751573205.3198216,391.19818,667.51514,111.87206,72.663734,
1751573205.3237114,0.0,643.08734,0.0,0.0,
1751573205.3276014,523.60376,720.4419,845.944,877.0982,
1751573205.3314915,1439.9988,793.10565,1450.0,1450.0,
1751573205.3353813,1440.8838,770.1825,1217.3168,1199.9695,
1751573205.3392713,525.8164,685.83594,224.00964,186.57144,
1751573205.3431613,0.0,648.3977,0.0,0.0,
1751573205.3470511,383.1441,714.15796,698.0498,727.78796,
1751573205.3509412,1344.0579,790.18494,1450.0,1450.0,
1751573205.3548312,1450.0,780.4492,1331.4015,1323.7899,
1751573205.3587213,672.11743,698.2268,354.64505,322.78278,
1751573205.3626111,0.0,644.0609,0.0,0.0,
1751573205.3665011,255.87193,698.4038,549.89014,580.3363,
1751573205.3703911,1239.7974,785.67114,1450.0,1450.0,
1751573205.3742809,1450.0,794.0792,1432.1217,1426.8113,
1751573205.3781710,817.1794,715.39703,497.31735,463.77344,
1751573205.3820610,0.0,651.8495,0.0,0.0,
1751573205.3859508,130.81242,694.067,407.30637,434.4778,
1751573205.3898408,1108.8079,776.3779,1375.9202,1407.2515,
1751573205.3937309,1450.0,791.6011,1450.0,1450.0,
1751573205.3976207,958.43555,721.85803,634.2367,611.22504,
1751573205.4015107,21.064518,649.99084,0.0,0.0,
1751573205.4054008,28.233534,676.9853,273.83875,293.48715,
1751573205.4092906,971.62305,770.53656,1266.5262,1299.2737,
1751573205.4131806,1450.0,805.4965,1450.0,1450.0,
1751573205.4170706,1092.7882,736.9926,789.38837,759.4732,
1751573205.4209607,120.545685,652.115,0.0,0.0,
1751573205.4248505,0.0,658.0449,153.29305,161.61264,
1751573205.4287405,834.0841,748.6755,1147.1312,1173.3291,
1751573205.4326305,1450.0,802.1333,1450.0,1450.0,
1751573205.4365203,1218.8213,753.4548,933.7423,908.34094,
1751573205.4404104,237.46262,669.4622,0.0,0.0,
1751573205.4443004,0.0,664.6829,39.56235,49.12104,
1751573205.4481902,689.9957,753.3663,1005.7865,1041.4546,
1751573205.4520802,1450.0,818.15295,1450.0,1450.0,
1751573205.4559703,1329.1003,779.12164,1071.2812,1054.3765,
1751573205.4598601,363.05316,688.4911,92.04663,57.352135,
1751573205.4637501,0.0,665.8335,0.0,0.0,
1751573205.4676402,540.3314,740.9754,861.43256,904.5352,
1751573205.4715300,1450.0,810.89545,1450.0,1450.0,
1751573205.4754200,1426.4573,789.74243,1197.2258,1185.9855,
1751573205.4793100,501.74265,703.89124,203.74168,172.0564,
1751573205.4831998,0.0,666.89557,0.0,0.0,
1751573205.4870899,401.81897,734.86847,719.1143,756.55255,
1751573205.4909799,1358.1304,814.25867,1450.0,1450.0,
1751573205.4948699,1450.0,794.6988,1316.2668,1303.168,
1751573205.4987597,648.0437,700.7935,334.4656,298.88605,
1751573205.5026498,0.0,648.3092,0.0,0.0,
1751573205.5065398,273.4847,708.405,572.2822,599.1882,
1751573205.5104296,1253.5159,798.9471,1450.0,1450.0,
1751573205.5143197,1450.0,802.2218,1417.7837,1413.4469,
1751573205.5182097,802.66437,718.22925,473.77466,442.79742,
1751573205.5220995,0.0,652.82306,0.0,0.0,
1751573205.5259895,150.19533,699.55444,426.33524,456.2504,
1751573205.5298796,1132.2621,793.45966,1389.9042,1420.9698,
1751573205.5337694,1450.0,811.6035,1450.0,1450.0,
1751573205.5376594,941.3538,731.94775,608.7469,593.16974,
1751573205.5415494,8.231093,653.08856,0.0,0.0,
1751573205.5454392,46.819874,679.552,293.13312,318.44595,
1751573205.5493293,1002.7773,763.279,1283.3425,1320.0726,
1751573205.5532193,1450.0,790.18494,1450.0,1450.0,
1751573205.5571094,1076.857,735.2225,765.31464,742.48,
1751573205.5609992,107.44675,663.53235,0.0,0.0,
1751573205.5648892,0.0,670.78986,172.32191,184.00476,
1751573205.5687792,850.45776,756.81805,1167.4877,1198.4648,
1751573205.5726690,1450.0,809.8334,1450.0,1450.0,
1751573205.5765591,1198.6418,757.26056,910.2881,884.5328,
1751573205.5804491,216.13258,668.22314,0.0,0.0,
1751573205.5843389,0.0,663.88635,57.263626,64.963684,
1751573205.5882289,711.14874,756.3755,1030.2142,1061.28,
1751573205.5921190,1450.0,818.507,1450.0,1450.0,
1751573205.5960088,1318.391,773.0147,1053.4915,1032.7809,
1751573205.5998988,348.00708,685.4819,76.115486,40.889946,
1751573205.6037889,0.0,665.8335,0.0,0.0,
1751573205.6076787,566.3523,745.0467,892.2328,926.48474,
1751573205.6115687,1450.0,812.046,1450.0,1450.0,
1751573205.6154587,1416.8986,774.1653,1183.3303,1168.2842,
1751573205.6193488,488.90924,680.26,190.1117,155.32869,
1751573205.6232386,0.0,649.99084,0.0,0.0,
1751573205.6271286,436.779,720.0879,744.1616,778.3251,
1751573205.6310186,1385.0364,792.0436,1450.0,1450.0,
1751573205.6349084,1450.0,779.21014,1304.23,1291.2196,
1751573205.6387985,634.94476,698.1383,322.1632,284.01697,
1751573205.6426885,0.0,653.97363,0.0,0.0,
1751573205.6465783,287.99976,711.8568,595.55945,630.5195,
1751573205.6504683,1268.5619,793.9022,1450.0,1450.0,
1751573205.6543584,1450.0,794.6103,1404.3307,1397.1617,
1751573205.6582482,773.5458,716.9017,454.65726,421.55588,
1751573205.6621382,0.0,652.82306,0.0,0.0,
1751573205.6660283,165.77245,689.28766,450.05493,475.36777,
1751573205.6699181,1147.0427,782.7504,1404.7732,1435.131,
1751573205.6738081,1450.0,802.57587,1450.0,1450.0,
1751573205.6776981,914.4479,725.13275,594.7629,563.96265,
1751573205.6815879,0.0,653.6196,0.0,0.0,
1751573205.6854780,60.272842,686.898,313.75513,335.52768,
1751573205.6893680,1018.3544,776.9975,1301.5748,1333.3486,
1751573205.6932580,1450.0,806.2931,1450.0,1450.0,
1751573205.6971478,1052.0753,740.26733,743.7191,718.6718,
1751573205.7010379,87.798325,649.90234,0.0,0.0,
1751573205.7049279,0.0,663.1783,191.35078,203.38766,
1751573205.7088177,877.8948,763.98706,1187.7556,1217.1398,
1751573205.7127078,1450.0,811.33795,1450.0,1450.0,
1751573205.7165978,1180.144,754.9594,889.93164,867.98206,
1751573205.7204876,198.87383,664.5059,0.0,0.0,
1751573205.7243776,0.0,661.31964,73.10627,85.32015,
1751573205.7282677,737.1696,753.80884,1052.4293,1090.0446,
1751573205.7321575,1450.0,808.5058,1450.0,1450.0,
1751573205.7360475,1297.1495,759.3847,1032.6039,1009.4152,
1751573205.7399375,323.4023,670.70135,61.15791,24.9588,
1751573205.7438273,0.0,653.17706,0.0,0.0,
1751573205.7477174,592.72723,738.3202,914.1824,945.6022,
1751573205.7516074,1450.0,810.4529,1450.0,1450.0,
1751573205.7554975,1401.3215,768.14685,1165.275,1148.1047,
1751573205.7593873,465.1895,667.69214,171.9679,137.09637,
1751573205.7632773,0.0,633.6172,0.0,0.0,
1751573205.7671673,449.4354,705.8384,770.448,799.83215,
1751573205.7710571,1393.2675,780.8033,1450.0,1450.0,
1751573205.7749472,1450.0,758.9422,1284.139,1274.9343,
1751573205.7788372,605.9147,662.6473,298.17798,265.43063,
1751573205.7827270,0.0,611.31354,0.0,0.0,
1751573205.7866170,317.82642,675.7462,623.1734,650.6989,
1751573205.7905071,1293.6093,751.1536,1450.0,1450.0,
1751573205.7943969,1450.0,744.3386,1390.7892,1382.9121,
1751573205.7982869,752.3927,672.02893,437.31003,400.13733,
1751573205.8021770,0.0,619.6332,0.0,0.0,
1751573205.8060668,187.10248,667.51514,481.82874,506.345,
1751573205.8099568,1172.5325,757.08356,1422.563,1450.0,
1751573205.8138468,1450.0,774.0768,1450.0,1450.0,
1751573205.8177369,890.5512,695.74866,580.0708,542.45557,
1751573205.8216267,0.0,626.0056,0.0,0.0,
1751573205.8255167,72.04419,661.05414,337.56332,359.95544,
1751573205.8294067,1028.0016,754.8709,1320.2496,1352.0234,
1751573205.8332965,1450.0,776.2894,1450.0,1450.0,
1751573205.8371866,1042.0741,702.0326,727.78796,695.66016,
1751573205.8410766,75.67295,632.5551,0.0,0.0,
1751573205.8449664,0.0,657.6909,210.46817,220.55789,
1751573205.8488564,908.34094,752.74677,1207.6696,1232.1858,
1751573205.8527465,1450.0,796.3804,1450.0,1450.0,
1751573205.8566363,1167.8417,737.4351,872.40735,852.3164,
1751573205.8605263,187.63353,653.88513,0.0,0.0,
1751573205.8644164,0.0,655.0357,87.97534,97.26851,
1751573205.8683062,755.3134,744.1616,1071.9893,1103.9401,
1751573205.8721962,1450.0,793.19415,1450.0,1450.0,
1751573205.8760862,1282.8114,740.6214,1016.2302,995.3427,
1751573205.8799760,306.05505,651.4954,48.41299,12.921931,
1751573205.8838661,0.0,632.7321,0.0,0.0,
1751573205.8877561,611.7561,721.94653,935.2469,969.8529,
1751573205.8916461,1450.0,796.82294,1450.0,1450.0,
1751573205.8955359,1392.1168,753.63184,1144.653,1129.0759,
1751573205.8994260,454.39175,659.54956,154.97467,120.545685,
1751573205.9033160,0.0,647.5127,0.0,0.0,
1751573205.9072058,463.06537,736.9926,786.5562,817.0909,
1751573205.9110959,1403.6227,808.9483,1450.0,1450.0,
1751573205.9149859,1450.0,782.48486,1267.1459,1252.8077,
1751573205.9188757,587.9479,674.0646,277.99854,241.17989,
1751573205.9227657,0.0,622.7309,0.0,0.0,
1751573205.9266558,330.12878,696.6337,640.2551,665.0369,
1751573205.9305456,1308.3013,788.59186,1450.0,1450.0,
1751573205.9344356,1450.0,801.9563,1372.3799,1366.273,
1751573205.9383256,704.5108,716.63617,408.72244,376.32913,
1751573205.9422154,0.0,652.82306,0.0,0.0,
1751573205.9461055,190.37723,715.7511,487.58163,517.49677,
1751573205.9499955,1169.7888,809.0368,1429.2896,1450.0,
1751573205.9538856,1450.0,807.00116,1450.0,1450.0,
1751573205.9577754,858.6889,733.0098,552.3683,526.3474,
1751573205.9616654,0.0,685.2164,0.0,0.0,
1751573205.9655554,79.92126,722.21204,346.945,376.77167,
1751573205.9694452,1037.1178,815.7633,1329.6313,1366.3615,
1751573205.9733353,1450.0,848.6877,1450.0,1450.0,
1751573205.9772253,999.94507,791.3355,696.27966,672.11743,
1751573205.9811151,54.342915,696.19116,0.0,0.0,
1751573205.9850051,0.0,695.66016,221.44296,238.52469,
1751573205.9888952,895.50757,805.4965,1218.6443,1250.7721,
1751573205.9927850,1450.0,841.7842,1450.0,1450.0,
1751573205.9966750,1124.916,761.15485,841.0761,817.3564,
1751573206.0005651,153.73558,695.0406,0.0,0.0,
1751573206.0044549,0.0,730.0006,99.127144,113.55368,
1751573206.0083449,732.30176,824.1714,1084.2916,1119.8712,
1751573206.0122349,1450.0,866.3889,1450.0,1450.0,
1751573206.0161250,1231.1238,815.6748,982.1553,965.5161,
1751573206.0200148,245.42819,742.83405,29.207106,0.0,
1751573206.0239048,0.0,732.7443,0.0,6.6379786,
1751573206.0277948,565.4672,813.0196,942.76996,980.5622,
1751573206.0316846,1450.0,868.6016,1450.0,1450.0,
1751573206.0355747,1343.5269,818.06445,1116.0654,1107.1263,
1751573206.0394647,360.22095,732.7443,130.01587,100.72026,
1751573206.0433545,0.0,711.8568,0.0,0.0,
1751573206.0472445,432.8847,793.10565,800.5402,840.9876,
1751573206.0511346,1395.2146,869.0441,1450.0,1450.0,
1751573206.0550244,1450.0,835.4117,1241.2135,1233.7789,
1751573206.0589144,509.00018,729.29254,249.14546,221.08893,
1751573206.0628045,0.0,691.58887,0.0,0.0,
1751573206.0666943,309.06427,757.6146,656.0978,691.4118,
1751573206.0705843,1288.4758,832.93353,1450.0,1450.0,
1751573206.0744743,1450.0,818.507,1355.4752,1349.5453,
1751573206.0783641,665.0369,728.85004,383.1441,354.91058,
1751573206.0822542,0.0,670.0818,0.0,0.0,
1751573206.0861442,207.10492,724.60175,516.87726,539.7119,
1751573206.0900342,1184.7463,821.3392,1445.1322,1450.0,
1751573206.0939240,1450.0,815.5863,1450.0,1450.0,
1751573206.0978141,836.47375,715.9281,534.57855,500.8576,
1751573206.1017041,0.0,643.7954,0.0,0.0,
1751573206.1055939,105.58811,685.92444,372.25784,400.8454,
1751573206.1094840,1074.6444,782.13086,1348.9257,1381.4076,
1751573206.1133740,1450.0,796.02637,1450.0,1450.0,
1751573206.1172638,996.2278,713.71545,679.8175,658.93,
1751573206.1211538,39.916378,633.3516,0.0,0.0,
1751573206.1250439,21.861076,649.72534,248.70293,265.78467,
1751573206.1289337,975.2518,740.9754,1247.2319,1275.9965,
1751573206.1328237,1450.0,787.2642,1450.0,1450.0,
1751573206.1367137,1119.4287,727.4339,816.7369,802.3103,
1751573206.1406035,145.94702,635.29877,0.0,0.0,
1751573206.1444936,0.0,638.485,122.40432,136.38834,
1751573206.1483836,822.48975,724.2477,1109.9585,1148.1932,
1751573206.1522737,1450.0,775.9354,1450.0,1450.0,
1751573206.1561635,1268.4734,735.488,970.738,949.3194,
1751573206.1600535,292.15955,650.5219,17.701275,0.0,
1751573206.1639435,0.0,643.08734,16.37368,23.454191,
1751573206.1678333,681.1451,721.5925,973.3931,1007.0256,
1751573206.1717234,1450.0,782.7504,1450.0,1450.0,
1751573206.1756134,1367.9546,746.02026,1108.3654,1091.4607,
1751573206.1795032,425.71567,647.8667,120.63419,87.17878,
1751573206.1833932,0.0,622.9079,0.0,0.0,
1751573206.1872833,533.6935,713.0959,831.95996,864.3533,
1751573206.1911731,1440.5298,785.3171,1450.0,1450.0,
1751573206.1950631,1450.0,758.49963,1233.2479,1223.6892,
1751573206.1989532,566.97186,676.0117,241.17989,210.02563,
1751573206.2028430,0.0,630.3424,0.0,0.0,
1751573206.2067330,392.6143,682.8267,683.0037,714.6005,
1751573206.2106230,1349.2798,773.8998,1450.0,1450.0,
1751573206.2145131,1450.0,781.4228,1346.2705,1337.9509,
1751573206.2184029,714.15796,679.19794,374.11646,340.57254,
1751573206.2222929,0.0,623.70447,0.0,0.0,
1751573206.2261829,247.72935,696.19116,538.2073,567.85693,
1751573206.2300727,1236.7881,784.1665,1450.0,1450.0,
1751573206.2339628,1450.0,784.6976,1443.8046,1436.193,
1751573206.2378528,838.3324,701.413,516.3462,479.17352,
1751573206.2417426,0.0,641.3172,0.0,0.0,
1751573206.2456326,132.31703,681.3221,395.712,421.02484,
1751573206.2495227,1114.2953,765.31464,1365.2109,1396.8961,
1751573206.2534125,1450.0,779.7412,1450.0,1450.0,
1751573206.2573025,990.8289,712.0338,662.2047,629.8114,
1751573206.2611926,36.464626,646.6276,0.0,0.0,
1751573206.2650824,27.968016,666.80707,266.13867,279.2376,
1751573206.2689724,982.59784,756.90656,1260.0653,1286.4402,
1751573206.2728624,1450.0,800.00916,1450.0,1450.0,
1751573206.2767522,1119.1632,737.4351,808.24023,783.10443,
1751573206.2806423,139.84007,655.3012,0.0,0.0,
1751573206.2845323,0.0,663.70935,138.06995,150.01831,
1751573206.2884223,834.6152,751.5962,1131.4656,1162.7083,
1751573206.2923121,1450.0,793.7252,1450.0,1450.0,
1751573206.2962022,1240.2399,737.7007,952.7712,931.52966,
1751573206.3000922,260.12024,648.3092,5.13337,0.0,
1751573206.3039820,0.0,642.99884,30.5347,40.004883,
1751573206.3078721,689.02216,737.2581,995.7853,1033.2235,
1751573206.3117621,1450.0,792.2206,1450.0,1450.0,
1751573206.3156519,1345.651,759.4732,1087.4779,1069.5996,
1751573206.3195419,390.1361,668.6657,103.37545,69.47751,
1751573206.3234320,0.0,628.04126,0.0,0.0,
1751573206.3273218,533.605,723.4511,855.5027,888.073,
1751573206.3312118,1445.9287,811.42645,1450.0,1450.0,
1751573206.3351018,1438.0516,785.0516,1216.6086,1198.8188,
1751573206.3389916,523.2497,691.2348,222.0625,184.4473,
1751573206.3428817,0.0,649.81384,0.0,0.0,
1751573206.3467717,395.535,717.52124,713.0959,741.2409,
1751573206.3506618,1353.9706,794.7873,1450.0,1450.0,
1751573206.3545516,1450.0,782.21936,1329.5428,1319.9841,
1751573206.3584416,670.61285,694.5981,353.8485,319.77356,
1751573206.3623316,0.0,630.4309,0.0,0.0,
1751573206.3662214,263.572,683.0922,558.5638,584.3191,
1751573206.3701115,1248.471,780.4492,1450.0,1450.0,
1751573206.3740015,1450.0,793.5482,1430.5286,1423.1826,
1751573206.3778913,801.9563,715.7511,494.1311,458.109,
1751573206.3817813,0.0,651.584,0.0,0.0,
1751573206.3856714,139.66307,686.544,413.6788,440.76178,
1751573206.3895612,1118.8976,768.23535,1378.1328,1410.9686,
1751573206.3934512,1450.0,787.5298,1450.0,1450.0,
1751573206.3973413,951.5321,714.6005,639.5471,609.0124,
1751573206.4012311,16.37368,644.5035,0.0,0.0,
1751573206.4051211,35.22554,675.8347,280.56522,301.0987,
1751573206.4090111,982.0668,776.909,1273.4298,1305.7346,
1751573206.4129012,1450.0,812.9311,1450.0,1450.0,
1751573206.4167910,1087.3894,740.6214,785.58264,755.8445,
1751573206.4206810,114.261734,662.1162,0.0,0.0,
1751573206.4245710,0.0,678.04736,155.94824,166.65752,
1751573206.4284608,842.84625,764.34106,1151.0255,1179.3475,
1751573206.4323509,1450.0,804.7885,1450.0,1450.0,
1751573206.4362409,1213.157,747.6134,927.1928,905.5973,
1751573206.4401307,233.47983,664.32886,0.0,0.0,
1751573206.4440207,0.0,657.7794,43.633644,51.59922,
1751573206.4479108,686.9865,745.75476,1012.15894,1044.6407,
1751573206.4518006,1450.0,809.9219,1450.0,1450.0,
1751573206.4556906,1318.4795,767.79285,1065.2628,1051.0133,
1751573206.4595807,350.21973,674.94965,86.82476,54.69694,
1751573206.4634705,0.0,653.00006,0.0,0.0,
1751573206.4673605,532.8084,747.5249,869.48663,906.74786,
1751573206.4712505,1450.0,820.3656,1450.0,1450.0,
1751573206.4751403,1418.1377,781.0688,1196.9602,1182.4452,
1751573206.4790304,483.1563,698.6694,203.38766,169.66673,
1751573206.4829204,0.0,664.24036,0.0,0.0,
1751573206.4868104,378.63028,735.3995,723.8937,755.6675,
1751573206.4907002,1349.2798,823.3748,1450.0,1450.0,
1751573206.4945903,1450.0,809.8334,1312.8151,1300.3357,
1751573206.4984803,607.7733,721.76953,331.81042,295.08026,
1751573206.5023701,0.0,668.9312,0.0,0.0,
1751573206.5062602,236.04651,727.3454,568.21094,598.65717,
1751573206.5101502,1223.5122,806.1161,1450.0,1450.0,
1751573206.5140400,1450.0,784.3435,1417.1642,1405.7468,
1751573206.5179300,717.87524,715.7511,468.37576,427.92834,
1751573206.5218201,0.0,682.7382,0.0,0.0,
1751573206.5257099,122.22731,727.96497,428.45938,455.0998,
1751573206.5295999,1078.5387,815.23224,1390.6122,1420.8813,
1751573206.5334899,1450.0,824.0829,1450.0,1450.0,
1751573206.5373797,875.5051,731.85925,609.63196,587.3283,
1751573206.5412698,0.0,658.8415,0.0,0.0,
1751573206.5451598,35.048527,689.37616,300.21362,318.44595,
1751573206.5490499,951.35504,773.8113,1289.538,1320.2496,
1751573206.5529397,1450.0,803.4609,1450.0,1450.0,
1751573206.5568297,1032.5154,734.0719,766.0227,737.2581,
1751573206.5607197,79.47873,655.0357,0.0,0.0,
1751573206.5646095,0.0,668.31165,171.43686,185.59787,
1751573206.5684996,826.5611,758.8537,1167.6647,1199.4385,
1751573206.5723896,1450.0,814.96674,1450.0,1450.0,
1751573206.5762794,1180.9406,759.3847,910.0226,883.6477,
1751573206.5801694,199.6704,659.63806,0.0,0.0,
1751573206.5840595,0.0,652.0265,57.706158,65.31771,
1751573206.5879493,696.01416,736.7271,1032.3384,1061.634,
1751573206.5918393,1450.0,785.75964,1450.0,1450.0,
1751573206.5957294,1309.8944,740.8869,1046.0569,1028.7096,
1751573206.5996192,339.42197,659.81506,75.31893,40.35891,
1751573206.6035092,0.0,646.27356,0.0,0.0,
1751573206.6073992,555.3775,718.7603,872.7614,917.98816,
1751573206.6112893,1450.0,781.0688,1450.0,1450.0,
1751573206.6151791,1418.3147,752.65826,1179.1705,1167.2222,
1751573206.6190691,488.90924,665.922,184.00476,153.38156,
1751573206.6229591,0.0,635.29877,0.0,0.0,
1751573206.6268489,446.33768,710.4407,747.17084,779.12164,
1751573206.6307390,1385.1249,787.6183,1450.0,1450.0,
1751573206.6346290,1450.0,771.33307,1296.1759,1289.007,
1751573206.6385188,653.97363,681.76465,312.162,281.4503,
1751573206.6424088,0.0,630.2539,0.0,0.0,
1751573206.6462989,310.8344,692.65094,597.9491,630.785,
1751573206.6501887,1289.0955,776.46643,1450.0,1450.0,
1751573206.6540787,1450.0,772.30664,1405.7468,1395.5686,
1751573206.6579688,792.84015,689.46466,454.03772,418.28116,
1751573206.6618586,0.0,629.7229,0.0,0.0,
1751573206.6657486,180.55301,676.8083,451.0285,479.70456,
1751573206.6696386,1169.7003,768.9434,1404.3307,1435.9275,
1751573206.6735284,1450.0,784.52057,1450.0,1450.0,
1751573206.6774185,940.38025,706.90045,595.91345,567.76843,
1751573206.6813085,1.858634,630.4309,0.0,0.0,
1751573206.6851985,66.114265,662.0277,313.75513,333.58054,
1751573206.6890883,1037.8258,762.4824,1302.9908,1332.4635,
1751573206.6929784,1450.0,795.4068,1450.0,1450.0,
1751573206.6968684,1063.6697,722.8316,740.44434,717.2557,
1751573206.7007582,94.08228,635.21027,0.0,0.0,
1751573206.7046483,0.0,648.9288,185.77489,202.67961,
1751573206.7085383,891.3477,752.0387,1181.7372,1215.7236,
1751573206.7124281,1450.0,798.239,1450.0,1450.0,
1751573206.7163181,1197.1373,737.7007,886.6569,870.1947,
1751573206.7202082,214.8935,656.80585,0.0,0.0,
1751573206.7240980,0.0,657.15985,72.30971,83.37301,
1751573206.7279880,751.0651,746.10876,1050.6592,1087.4779,
1751573206.7318780,1450.0,801.42523,1450.0,1450.0,
1751573206.7357678,1305.5576,750.8881,1027.3821,1009.6808,
1751573206.7396579,340.13,661.8507,58.502716,26.020876,
1751573206.7435479,0.0,644.5035,0.0,0.0,
1751573206.7474380,590.5146,726.8144,909.049,940.6458,
1751573206.7513278,1450.0,796.91144,1450.0,1450.0,
1751573206.7552178,1402.826,764.6066,1167.5762,1148.4587,
1751573206.7591078,456.86993,671.23236,174.18056,137.89294,
1751573206.7629976,0.0,639.8126,0.0,0.0,
1751573206.7668877,447.04572,716.1051,760.53534,791.9551,
1751573206.7707777,1389.1077,795.1413,1450.0,1450.0,
1751573206.7746675,1450.0,778.85614,1282.0149,1271.3942,
1751573206.7785575,608.6584,689.19916,294.46072,261.71335,
1751573206.7824476,0.0,644.592,0.0,0.0,
1751573206.7863374,304.37344,712.4763,611.5791,643.35284,
1751573206.7902274,1282.1919,799.83215,1450.0,1450.0,
1751573206.7941175,1450.0,787.9723,1393.2675,1385.6559,
1751573206.7980072,755.933,699.81995,438.2836,404.12012,
1751573206.8018973,0.0,642.4678,0.0,0.0,
1751573206.8057873,180.02197,693.00494,465.1895,493.24603,
1751573206.8096774,1163.3279,790.27344,1414.5974,1445.6632,
1751573206.8135672,1450.0,804.6115,1450.0,1450.0,
1751573206.8174572,900.72943,723.6282,579.9823,549.3591,
1751573206.8213472,0.0,652.82306,0.0,0.0,
1751573206.8252370,72.663734,687.429,328.00464,346.05994,
1751573206.8291271,1034.1085,779.12164,1314.1427,1342.9072,
1751573206.8330171,1450.0,803.0184,1450.0,1450.0,
1751573206.8369069,1049.3317,732.21326,727.2569,696.8107,
1751573206.8407969,83.46152,654.23914,0.0,0.0,
1751573206.8446870,0.0,672.914,197.36922,211.97278,
1751573206.8485768,894.0029,767.96985,1193.774,1224.3087,
1751573206.8524668,1450.0,810.54144,1450.0,1450.0,
1751573206.8563569,1166.868,750.26855,874.1775,850.28076,
1751573206.8602467,186.21742,660.16907,0.0,0.0,
1751573206.8641367,0.0,661.7622,80.89483,91.95813,
1751573206.8680267,744.1616,754.25134,1061.28,1095.709,
1751573206.8719168,1450.0,804.7,1450.0,1450.0,
1751573206.8758066,1289.184,748.8525,1016.6728,998.9715,
1751573206.8796966,314.9057,666.89557,49.563572,16.727705,
1751573206.8835866,0.0,659.107,0.0,0.0,
1751573206.8874764,599.1882,739.29376,925.15717,959.6747,
1751573206.8913665,1450.0,806.55865,1450.0,1450.0,
1751573206.8952565,1391.5858,777.79407,1153.7692,1134.4747,
1751573206.8991463,452.6216,685.83594,161.34712,126.12159,
1751573206.9030364,0.0,647.9552,0.0,0.0,
1751573206.9069264,452.79865,723.0971,777.88257,806.0276,
1751573206.9108162,1395.2146,804.7,1450.0,1450.0,
1751573206.9147062,1450.0,786.11365,1274.6688,1264.7561,
1751573206.9185963,606.79974,693.27045,286.31815,254.27882,
1751573206.9224861,0.0,645.65405,0.0,0.0,
1751573206.9263761,323.66782,709.82117,627.77576,658.3989,
1751573206.9302661,1295.7334,795.76086,1450.0,1450.0,
1751573206.9341559,1450.0,792.75165,1386.8064,1381.6731,
1751573206.9380460,764.6066,710.2637,430.76056,399.3408,
1751573206.9419360,0.0,651.3184,0.0,0.0,
1751573206.9458261,198.16579,694.5981,483.42184,516.52325,
1751573206.9497159,1185.012,786.11365,1424.3331,1450.0,
1751573206.9536059,1450.0,804.16895,1450.0,1450.0,
1751573206.9574959,907.80994,727.4339,575.734,548.297,
1751573206.9613857,0.0,652.55756,0.0,0.0,
1751573206.9652758,86.559235,677.4278,344.90936,371.10724,
1751573206.9691658,1063.5812,766.7308,1327.1532,1360.343,
1751573206.9730556,1450.0,804.523,1450.0,1450.0,
1751573206.9769456,1037.0293,744.5157,720.97296,694.7751,
1751573206.9808357,72.84075,663.62085,0.0,0.0,
1751573206.9847255,0.0,675.7462,210.46817,229.76256,
1751573206.9886155,924.2721,768.05835,1207.3156,1241.2135,
1751573206.9925056,1450.0,809.0368,1450.0,1450.0,
1751573206.9963953,1173.1521,747.17084,868.07056,850.9003,
1751573207.0002854,192.23586,662.4702,0.0,0.0,
1751573207.0041754,0.0,660.70013,93.55124,106.20766,
1751573207.0080655,787.2642,742.0375,1081.6365,1116.2424,
1751573207.0119553,1450.0,798.416,1450.0,1450.0,
1751573207.0158453,1283.1655,763.3675,1003.92786,996.0508,
1751573207.0197353,312.42752,676.6313,40.80144,11.771348,
1751573207.0236251,0.0,659.1955,0.0,0.0,
1751573207.0275152,630.5195,746.10876,936.9285,977.553,
1751573207.0314052,1450.0,812.6656,1450.0,1450.0,
1751573207.0352950,1387.426,778.0596,1139.0771,1130.7574,
1751573207.0391850,449.08136,684.4198,147.98267,119.83764,
1751573207.0430751,0.0,648.9288,0.0,0.0,
1751573207.0469649,484.48392,717.69824,796.91144,830.1013,
1751573207.0508549,1415.1285,793.6367,1450.0,1450.0,
1751573207.0547450,1450.0,776.0239,1263.7826,1254.8434,
1751573207.0586348,586.6203,689.6417,274.19275,242.95001,
1751573207.0625248,0.0,652.91156,0.0,0.0,
1751573207.0664148,343.22772,722.5661,645.65405,680.437,
1751573207.0703049,1311.4875,804.34595,1450.0,1450.0,
1751573207.0741947,1450.0,797.9735,1374.9465,1368.5741,
1751573207.0780847,745.84326,709.0246,414.20984,383.2326,
1751573207.0819747,0.0,642.64484,0.0,0.0,
1751573207.0858645,207.19344,691.4118,495.2817,525.9934,
1751573207.0897546,1196.6947,779.9182,1434.4229,1450.0,
1751573207.0936446,1450.0,787.9723,1450.0,1450.0,
1751573207.0975344,862.6717,704.8648,548.56256,527.67505,
1751573207.1014245,0.0,634.0597,0.0,0.0,
1751573207.1053145,87.88683,669.6393,354.114,379.16132,
1751573207.1092043,1049.7742,762.3054,1335.0303,1368.1316,
1751573207.1130943,1450.0,790.27344,1450.0,1450.0,
1751573207.1169844,996.4048,711.32574,695.83716,670.70135,
1751573207.1208742,47.350914,625.29755,0.0,0.0,
1751573207.1247642,0.0,646.09656,225.24873,247.55234,
1751573207.1286542,923.9181,749.64905,1222.9811,1259.0918,
1751573207.1325440,1450.0,800.9827,1450.0,1450.0,
1751573207.1364341,1140.4932,743.8076,837.6244,817.88745,
1751573207.1403241,162.40921,658.93,0.0,0.0,
1751573207.1442142,0.0,653.00006,109.83642,120.89971,
1751573207.1481040,784.6976,738.3202,1099.3378,1129.7839,
1751573207.1519940,1450.0,798.5046,1450.0,1450.0,
1751573207.1558840,1260.3308,746.28577,976.7564,964.63104,
1751573207.1597738,279.59164,660.61163,24.781786,0.0,
1751573207.1636639,0.0,660.08057,7.08051,12.390893,
1751573207.1675539,646.00806,742.0375,956.93097,991.8025,
1751573207.1714437,1450.0,795.0528,1450.0,1450.0,
1751573207.1753337,1366.273,759.65027,1120.0482,1109.0735,
1751573207.1792238,414.74088,676.2772,130.01587,100.366234,
1751573207.1831136,0.0,649.90234,0.0,0.0,
1751573207.1870036,500.06104,725.39825,823.6404,853.55554,
1751573207.1908937,1424.2446,803.90344,1450.0,1450.0,
1751573207.1947834,1450.0,783.10443,1242.718,1236.4341,
1751573207.1986735,561.13043,691.50037,252.5972,223.03607,
1751573207.2025635,0.0,650.7874,0.0,0.0,
1751573207.2064536,362.43362,713.89246,669.1967,706.72345,
1751573207.2103434,1327.6842,792.92865,1450.0,1450.0,
1751573207.2142334,1450.0,790.893,1358.3074,1350.8728,
1751573207.2181234,717.4327,704.9533,392.26028,358.36234,
1751573207.2220132,0.0,641.1402,0.0,0.0,
1751573207.2259033,233.92236,699.2889,523.1612,558.9178,
1751573207.2297933,1220.5914,796.02637,1449.0265,1450.0,
1751573207.2336831,1450.0,804.7,1450.0,1449.9115,
1751573207.2375731,861.6981,722.9201,531.92334,506.07947,
1751573207.2414632,0.0,651.584,0.0,0.0,
1751573207.2453530,125.502045,691.2348,380.75446,411.9972,
1751573207.2492430,1117.4816,785.4056,1356.2717,1389.1077,
1751573207.2531331,1450.0,806.55865,1450.0,1450.0,
1751573207.2570229,973.3046,729.20404,669.1082,653.17706,
1751573207.2609129,32.74736,653.17706,0.0,0.0,
1751573207.2648029,21.861076,678.13586,247.99487,269.0594,
1751573207.2686930,963.923,769.0319,1241.7445,1277.1471,
1751573207.2725828,1450.0,802.4873,1450.0,1450.0,
1751573207.2764728,1134.7402,740.26733,822.8438,807.17816,
1751573207.2803628,156.21376,663.53235,0.0,0.0,
1751573207.2842526,0.0,672.914,123.99744,141.5217,
1751573207.2881427,813.90466,764.42957,1115.0919,1156.0703,
1751573207.2920327,1450.0,808.7713,1450.0,1450.0,
1751573207.2959225,1249.9756,751.0651,964.98505,947.8148,
1751573207.2998126,271.62607,665.745,14.16102,0.0,
1751573207.3037026,0.0,661.40814,18.763351,28.056522,
1751573207.3075924,664.41736,743.18805,976.8449,1015.9647,
1751573207.3114824,1450.0,800.8057,1450.0,1450.0,
1751573207.3153725,1357.8649,762.0399,1105.3562,1085.7963,
1751573207.3192623,403.7661,674.4186,117.27095,83.99255,
1751573207.3231523,0.0,651.1414,0.0,0.0,
1751573207.3270423,518.20483,727.87646,838.77496,863.4682,
1751573207.3309321,1435.2195,810.3644,1450.0,1450.0,
1751573207.3348222,1448.4069,789.21136,1228.38,1218.9098,
1751573207.3387122,543.6947,691.76587,236.40054,205.60031,
1751573207.3426023,0.0,647.6012,0.0,0.0,
1751573207.3464921,374.736,715.22003,684.3313,716.8132,
1751573207.3503821,1338.5704,796.2919,1450.0,1450.0,
1751573207.3542721,1450.0,784.9631,1348.2177,1342.4647,
1751573207.3581619,688.93365,696.89923,377.4797,346.768,
1751573207.3620520,0.0,646.36206,0.0,0.0,
1751573207.3659420,248.26039,699.73145,540.4199,575.29144,
1751573207.3698318,1232.2743,784.8746,1450.0,1450.0,
1751573207.3737218,1450.0,794.6988,1442.8309,1439.0253,
1751573207.3776119,840.8106,713.0959,518.47034,487.40463,
1751573207.3815017,0.0,647.33563,0.0,0.0,
1751573207.3853917,128.68828,689.37616,401.1994,428.19385,
1751573207.3892817,1110.6665,780.0952,1368.0431,1399.1974,
1751573207.3931715,1450.0,806.91266,1450.0,1450.0,
1751573207.3970616,990.9174,735.3995,665.922,642.02527,
1751573207.4009516,36.19911,654.15063,0.0,0.0,
1751573207.4048417,26.286394,677.3393,266.6697,287.73422,
1751573207.4087315,980.38513,764.6066,1259.3573,1292.1046,
1751573207.4126215,1450.0,796.64594,1450.0,1450.0,
1751573207.4165115,1128.6333,738.76276,817.2679,801.0712,
1751573207.4204013,145.59299,664.5944,0.0,0.0,
1751573207.4242914,0.0,680.6141,137.27339,157.71837,
1751573207.4281814,850.7233,771.06757,1132.7046,1174.2141,
1751573207.4320712,1450.0,816.1173,1450.0,1450.0,
1751573207.4359612,1250.7721,762.571,958.5241,946.0447,
1751573207.4398513,272.68814,671.05536,6.814991,0.0,
1751573207.4437411,0.0,661.05414,31.862297,43.54514,
1751573207.4476311,711.14874,749.118,999.76807,1043.7557,
1751573207.4515212,1450.0,807.7977,1450.0,1450.0,
1751573207.4554110,1363.0868,770.448,1102.6124,1088.3629,
1751573207.4593010,420.5823,679.906,111.69505,78.68217,
1751573207.4631910,0.0,647.8667,0.0,0.0,
1751573207.4670811,571.22015,729.46954,864.88434,904.8892,
1751573207.4709709,1450.0,811.7805,1450.0,1450.0,
1751573207.4748609,1450.0,792.0436,1224.7512,1224.7512,
1751573207.4787509,571.8397,700.26245,231.7982,207.72447,
1751573207.4826407,0.0,656.80585,0.0,0.0,
1751573207.4865308,427.92834,724.60175,713.53845,760.3583,
1751573207.4904208,1371.4064,805.231,1450.0,1450.0,
1751573207.4943106,1450.0,792.4861,1340.3406,1337.3314,
1751573207.4982007,710.2637,704.24524,372.1693,345.7059,
1751573207.5020907,0.0,650.25635,0.0,0.0,
1751573207.5059805,275.07782,707.697,557.9442,597.5951,
1751573207.5098705,1259.0033,791.5126,1450.0,1450.0,
1751573207.5137606,1450.0,790.893,1432.7412,1431.5907,
1751573207.5176504,846.2095,714.06946,502.80475,479.17352,
1751573207.5215404,0.0,655.9208,0.0,0.0,
1751573207.5254304,149.8413,702.1211,411.73166,446.51468,
1751573207.5293202,1139.7852,789.03436,1376.8937,1412.8273,
1751573207.5332103,1450.0,799.74365,1450.0,1450.0,
1751573207.5371003,980.38513,729.11554,644.4149,620.0757,
1751573207.5409904,28.32204,655.2127,0.0,0.0,
1751573207.5448802,35.22554,677.95886,274.36978,298.88605,
1751573207.5487702,995.4312,776.8205,1267.5884,1303.345,
1751573207.5526602,1450.0,810.71844,1450.0,1450.0,
1751573207.5565500,1101.7274,739.29376,788.59186,766.2882,
1751573207.5604401,128.68828,654.7702,0.0,0.0,
1751573207.5643301,0.0,667.3381,143.64586,158.95746,
