timestamps,eeg_1,eeg_2,eeg_3,eeg_4,note
1751406996.4380367,753.72034,730.3546,724.0707,683.8888,
1751406996.4419272,771.33307,731.50525,729.6466,1082.964,
1751406996.4458177,782.13086,736.6386,734.3374,1055.1731,
1751406996.4497082,765.40314,731.50525,731.94775,672.56,
1751406996.4535987,747.25934,723.3626,731.2397,391.4637,
1751406996.4574893,751.3306,729.6466,729.02704,622.1998,
1751406996.4613798,768.23535,738.4972,735.75354,1044.1982,
1751406996.4652703,769.2974,737.4351,746.90533,1069.5996,
1751406996.4691608,754.8709,731.1512,743.9846,708.3165,
1751406996.4730513,741.5065,732.03625,736.10754,394.47293,
1751406996.4769418,740.17883,738.4087,733.0983,556.2626,
1751406996.4808323,752.56976,732.39026,736.8156,990.29785,
1751406996.4847229,761.7744,731.2397,737.8777,1084.5571,
1751406996.4886134,753.89734,733.5409,729.9121,755.1364,
1751406996.4925039,740.9754,727.87646,722.21204,405.89026,
1751406996.4963944,741.595,731.1512,725.48676,498.0254,
1751406996.5002849,751.9502,733.7179,738.2317,940.6458,
1751406996.5041754,757.6146,735.311,739.47076,1102.5239,
1751406996.5080659,750.26855,734.86847,730.0006,803.99194,
1751406996.5119565,736.8156,733.1868,725.39825,422.88348,
1751406996.5158470,731.85925,731.94775,728.14197,453.41818,
1751406996.5197372,741.5065,733.6294,727.69946,887.2764,
1751406996.5236278,751.0651,735.3995,730.6202,1102.4354,
1751406996.5275183,747.7904,726.6374,734.2489,852.582,
1751406996.5314088,735.84204,723.5397,729.38104,459.17108,
1751406996.5352993,732.30176,726.8144,724.86725,413.23627,
1751406996.5391898,740.7984,726.7259,728.496,822.04724,
1751406996.5430803,750.5341,723.4511,733.1868,1097.9216,
1751406996.5469708,744.5157,732.12476,730.0891,901.26044,
1751406996.5508614,731.77075,740.09033,725.39825,497.49435,
1751406996.5547519,724.1592,733.45233,724.77875,382.34756,
1751406996.5586424,729.20404,732.6558,729.6466,755.8445,
1751406996.5625329,745.0467,737.4351,733.8949,1082.1675,
1751406996.5664234,744.2501,731.4167,727.87646,943.03546,
1751406996.5703139,726.1948,726.1063,722.21204,539.18085,
1751406996.5742044,715.30853,724.2477,721.5925,361.9026,
1751406996.5780950,724.95575,725.13275,726.9914,689.8187,
1751406996.5819855,742.48,733.7179,735.84204,1058.8018,
1751406996.5858760,748.941,738.76276,731.59375,984.8105,
1751406996.5897665,740.35583,734.60297,723.0971,596.44446,
1751406996.5936570,734.2489,728.85004,724.2477,373.05438,
1751406996.5975475,734.69147,733.9834,730.0006,644.946,
1751406996.6014380,737.7892,736.9041,734.86847,1031.9844,
1751406996.6053286,745.66626,734.86847,734.51447,1021.71765,
1751406996.6092191,746.10876,732.9213,730.6202,658.1334,
1751406996.6131096,734.69147,729.29254,723.4511,375.53256,
1751406996.6170001,731.94775,731.4167,723.0971,590.426,
1751406996.6208906,750.7996,733.8949,732.30176,1015.43365,
1751406996.6247811,758.1456,734.60297,733.0098,1055.7041,
1751406996.6286716,744.9582,733.8064,725.8408,698.4923,
1751406996.6325622,729.7351,724.4247,720.3534,379.51535,
1751406996.6364527,724.77875,725.9293,722.5661,532.8084,
1751406996.6403432,742.74554,731.4167,729.6466,972.9506,
1751406996.6442337,759.8273,721.85803,725.8408,1083.5836,
1751406996.6481242,750.5341,726.8144,722.6546,758.5882,
1751406996.6520147,733.8064,736.7271,725.22125,404.20862,
1751406996.6559052,729.8236,739.47076,723.3626,489.52878,
1751406996.6597958,739.38226,736.37305,729.6466,922.856,
1751406996.6636863,752.0387,729.9121,739.02826,1094.7354,
1751406996.6675768,744.2501,730.9742,734.4259,815.8518,
1751406996.6714673,727.96497,729.8236,722.6546,431.11456,
1751406996.6753576,728.67303,725.30975,722.6546,444.125,
1751406996.6792481,737.9662,728.4075,731.1512,869.2211,
1751406996.6831386,750.7111,730.7087,734.1604,1098.0986,
1751406996.6870291,747.43634,729.7351,729.02704,860.99005,
1751406996.6909196,726.3718,727.4339,724.3362,465.1895,
1751406996.6948102,720.79596,722.5661,726.0178,412.70523,
1751406996.6987007,734.957,732.12476,729.8236,813.63916,
1751406996.7025912,748.4984,739.47076,729.20404,1097.0366,
1751406996.7064817,747.17084,738.93976,729.46954,910.81915,
1751406996.7103722,731.4167,732.21326,729.5581,509.00018,
1751406996.7142627,720.97296,727.61096,726.7259,383.2326,
1751406996.7181532,730.6202,733.2753,732.21326,749.0295,
1751406996.7220438,747.6134,734.69147,736.10754,1084.5571,
1751406996.7259343,744.9582,725.22125,731.4167,958.25854,
1751406996.7298248,728.93854,721.14996,724.86725,556.88214,
1751406996.7337153,717.96375,730.7972,723.8937,361.8141,
1751406996.7376058,726.4603,735.0455,726.7259,678.75543,
1751406996.7414963,744.1616,732.21326,729.7351,1060.6604,
1751406996.7453868,745.57776,729.6466,732.21326,996.4933,
1751406996.7492774,732.30176,725.04425,725.48676,604.23303,
1751406996.7531679,722.03503,722.5661,722.5661,358.0968,
1751406996.7570584,722.38904,730.1776,726.7259,625.9171,
1751406996.7609489,736.19604,737.6122,729.9121,1037.2948,
1751406996.7648394,741.5065,732.03625,733.0983,1024.4613,
1751406996.7687299,726.7259,719.5569,729.5581,650.8759,
1751406996.7726204,713.2729,720.70746,724.95575,356.4152,
1751406996.7765110,714.42346,731.1512,727.69946,557.41315,
1751406996.7804015,729.38104,736.7271,734.0719,992.422,
1751406996.7842920,739.20526,735.134,729.02704,1056.5891,
1751406996.7881825,726.8144,726.1063,720.3534,700.7935,
1751406996.7920730,710.70624,721.23846,722.9201,364.64627,
1751406996.7959635,718.6718,727.87646,726.6374,505.0174,
1751406996.7998540,747.08234,732.5673,730.0891,954.36426,
1751406996.8037446,753.80884,733.45233,733.5409,1084.5571,
1751406996.8076351,721.41547,726.0178,726.8144,751.2421,
1751406996.8115256,701.9441,720.61896,719.6454,379.78088,
1751406996.8154161,705.9269,726.9914,723.0086,448.1963,
1751406996.8193066,712.0338,731.3282,730.6202,878.51434,
1751406996.8231971,725.22125,730.4431,730.5317,1069.0686,
1751406996.8270876,723.1856,726.2833,727.96497,799.92065,
1751406996.8309779,706.90045,725.8408,722.30054,405.53622,
1751406996.8348684,709.3786,729.7351,720.70746,410.84662,
1751406996.8387589,721.14996,731.50525,729.8236,842.75775,
1751406996.8426495,732.12476,730.8857,733.36383,1084.2916,
1751406996.8465400,728.4075,727.2569,729.5581,853.90955,
1751406996.8504305,710.61774,723.0086,723.8937,451.91357,
1751406996.8543210,704.15674,719.5569,719.8224,379.33835,
1751406996.8582115,718.31775,723.6282,725.13275,776.46643,
1751406996.8621020,728.319,725.39825,727.52246,1071.7238,
1751406996.8659925,724.1592,726.3718,724.77875,902.057,
1751406996.8698831,708.7591,730.0891,720.2649,497.58286,
1751406996.8737736,699.0234,729.02704,718.05225,354.0255,
1751406996.8776641,710.97174,729.38104,725.7523,715.5741,
1751406996.8815546,727.4339,732.47876,730.7972,1063.3157,
1751406996.8854451,724.95575,729.02704,727.96497,945.0711,
1751406996.8893356,710.97174,725.39825,723.8052,549.18207,
1751406996.8932261,704.6878,723.5397,722.5661,349.15765,
1751406996.8971167,709.73267,725.22125,725.39825,657.33685,
1751406996.9010072,725.48676,730.4431,729.7351,1044.0212,
1751406996.9048977,730.8857,727.3454,728.23047,991.3599,
1751406996.9087882,714.689,716.9017,722.38904,598.92267,
1751406996.9126787,702.91766,718.9373,721.504,344.2013,
1751406996.9165692,710.97174,728.05347,726.3718,599.01117,
1751406996.9204597,725.30975,730.4431,729.7351,1010.0348,
1751406996.9243503,728.23047,728.14197,729.20404,1016.1417,
1751406996.9282408,720.0879,722.21204,726.2833,654.7702,
1751406996.9321313,710.0867,717.87524,716.54767,362.34512,
1751406996.9360218,709.73267,719.9109,716.54767,540.774,
1751406996.9399123,723.3626,725.22125,729.46954,957.63904,
1751406996.9438028,733.45233,727.78796,733.9834,1037.0293,
1751406996.9476933,724.69025,728.319,729.20404,719.9109,
1751406996.9515839,711.32574,727.78796,727.0799,389.60507,
1751406996.9554744,712.2993,725.48676,727.78796,493.06903,
1751406996.9593649,727.69946,721.681,733.8949,914.0054,
1751406996.9632554,737.6122,723.5397,734.51447,1055.0846,
1751406996.9671459,728.14197,729.20404,727.78796,774.60785,
1751406996.9710364,711.9453,729.38104,721.23846,416.06848,
1751406996.9749269,708.4935,730.0891,722.47754,454.74576,
1751406996.9788175,721.94653,729.8236,727.4339,864.79584,
1751406996.9827080,738.58575,731.3282,729.02704,1062.9615,
1751406996.9865985,736.01904,731.4167,729.7351,820.80817,
1751406996.9904888,722.30054,727.96497,723.8937,443.948,
1751406996.9943793,719.0258,730.0891,719.1143,415.97998,
1751406996.9982698,725.04425,729.46954,725.5753,812.046,
1751406997.0021603,732.30176,730.5317,728.93854,1061.5455,
1751406997.0060508,727.96497,728.496,727.0799,864.4418,
1751406997.0099413,715.6626,726.7259,723.9822,486.43106,
1751406997.0138319,710.1752,725.8408,722.03503,393.58786,
1751406997.0177224,722.47754,725.13275,728.319,763.72156,
1751406997.0216129,738.93976,727.61096,731.85925,1065.7053,
1751406997.0255034,734.69147,727.87646,729.6466,923.1215,
1751406997.0293939,716.9902,724.69025,727.1684,534.57855,
1751406997.0332844,709.99817,723.9822,723.5397,369.69113,
1751406997.0371749,716.7247,729.20404,724.77875,696.19116,
1751406997.0410655,731.94775,733.5409,732.8328,1044.7292,
1751406997.0449560,733.7179,732.9213,732.7443,959.5862,
1751406997.0488465,719.1143,728.76154,723.6282,575.9995,
1751406997.0527370,711.8568,725.30975,720.3534,357.8313,
1751406997.0566275,717.60974,728.58453,722.12354,638.83905,
1751406997.0605180,732.8328,731.77075,727.3454,1022.42566,
1751406997.0644085,739.29376,729.5581,729.02704,993.13007,
1751406997.0682991,725.22125,727.61096,722.47754,625.20905,
1751406997.0721896,712.8304,725.30975,718.31775,370.93024,
1751406997.0760801,727.87646,731.4167,722.21204,602.90546,
1751406997.0799706,743.7191,735.2225,728.76154,998.7945,
1751406997.0838611,738.93976,728.93854,728.85004,1019.23944,
1751406997.0877516,728.319,730.5317,726.0178,679.28644,
1751406997.0916421,717.4327,730.3546,726.2833,377.3027,
1751406997.0955327,717.69824,729.29254,730.8857,537.4107,
1751406997.0994232,738.1432,731.2397,735.0455,955.1608,
1751406997.1033137,747.5249,728.319,734.4259,1046.2339,
1751406997.1072042,729.9121,730.2661,726.7259,733.36383,
1751406997.1110947,715.6626,728.93854,714.866,392.87982,
1751406997.1149852,720.70746,726.7259,717.3442,489.9713,
1751406997.1188757,739.9133,731.0627,727.87646,913.0318,
1751406997.1227663,749.82605,730.6202,731.4167,1064.9972,
1751406997.1266568,734.51447,724.3362,728.93854,786.37915,
1751406997.1305473,719.9109,724.95575,722.7431,426.86627,
1751406997.1344378,720.88446,733.36383,721.41547,455.0113,
1751406997.1383283,735.84204,736.9926,728.58453,866.4774,
1751406997.1422188,746.37427,733.8949,734.3374,1077.5652,
1751406997.1461091,740.9754,731.2397,731.2397,847.6256,
1751406997.1499996,724.86725,723.7167,723.8052,461.8263,
1751406997.1538901,718.5833,720.2649,722.8316,415.1834,
1751406997.1577806,736.37305,730.1776,729.8236,811.24945,
1751406997.1616712,749.3835,734.2489,734.69147,1071.5468,
1751406997.1655617,739.9133,727.3454,733.0098,887.6305,
1751406997.1694522,724.0707,724.3362,727.69946,505.81396,
1751406997.1733427,721.06146,725.8408,724.4247,394.0304,
1751406997.1772332,735.0455,729.20404,730.7087,751.7732,
1751406997.1811237,747.8789,732.7443,735.3995,1061.3685,
1751406997.1850142,745.84326,732.6558,732.03625,933.38824,
1751406997.1889048,726.9029,728.496,726.1948,551.1292,
1751406997.1927953,713.98096,726.5489,725.48676,377.83374,
1751406997.1966858,727.69946,725.04425,734.60297,697.6073,
1751406997.2005763,745.93176,726.9029,742.92255,1052.6948,
1751406997.2044668,742.74554,730.4431,738.2317,978.61505,
1751406997.2083573,723.6282,727.3454,730.3546,601.3123,
1751406997.2122478,713.62695,720.97296,728.93854,372.0808,
1751406997.2161384,725.30975,719.7339,734.0719,637.954,
1751406997.2200289,739.8248,722.30054,737.4351,1022.6027,
1751406997.2239194,741.3294,727.61096,733.8064,1010.3003,
1751406997.2278099,728.67303,730.5317,729.20404,655.3012,
1751406997.2317004,716.8132,729.11554,725.5753,381.728,
1751406997.2355909,723.4511,730.4431,728.76154,587.2398,
1751406997.2394814,741.949,734.77997,736.37305,993.66113,
1751406997.2433720,747.17084,734.2489,734.2489,1039.596,
1751406997.2472625,735.0455,726.4603,726.0178,711.14874,
1751406997.2511530,726.0178,722.6546,724.86725,399.2523,
1751406997.2550435,728.319,730.7087,730.9742,531.74634,
1751406997.2589340,740.5329,734.77997,735.66504,946.0447,
1751406997.2628245,748.587,731.50525,736.6386,1054.1995,
1751406997.2667150,739.11676,727.61096,730.7972,759.56177,
1751406997.2706056,726.6374,725.6638,726.5489,422.52945,
1751406997.2744961,720.88446,726.8144,729.20404,490.67935,
1751406997.2783866,729.38104,731.59375,734.60297,906.2168,
1751406997.2822771,739.47076,734.4259,740.00183,1069.5996,
1751406997.2861676,732.30176,726.5489,733.5409,807.44366,
1751406997.2900581,720.3534,724.86725,724.1592,442.88593,
1751406997.2939487,718.5833,732.8328,724.69025,442.6204,
1751406997.2978392,730.6202,732.7443,733.0983,851.43134,
1751406997.3017294,746.37427,724.51324,738.3202,1078.0962,
1751406997.3056200,740.5329,724.77875,730.6202,858.6889,
1751406997.3095105,723.4511,732.8328,724.1592,478.6425,
1751406997.3134010,720.97296,732.6558,724.69025,411.37766,
1751406997.3172915,731.1512,730.6202,730.7972,795.67236,
1751406997.3211820,741.3294,730.1776,733.45233,1069.2456,
1751406997.3250725,735.311,728.85004,729.11554,897.5432,
1751406997.3289630,722.03503,729.11554,722.12354,525.28534,
1751406997.3328536,716.0166,729.46954,720.61896,394.0304,
1751406997.3367441,717.4327,729.8236,727.96497,731.3282,
1751406997.3406346,735.311,724.60175,729.02704,1058.4478,
1751406997.3445251,739.9133,713.71545,725.39825,944.09753,
1751406997.3484156,725.8408,716.1936,724.1592,567.85693,
1751406997.3523061,723.8052,725.22125,719.4683,385.00275,
1751406997.3561966,725.9293,732.03625,726.2833,682.9152,
1751406997.3600872,732.9213,737.3466,737.7007,1033.9315,
1751406997.3639777,753.89734,733.36383,736.9041,989.67834,
1751406997.3678682,755.4019,729.8236,730.0891,643.9724,
1751406997.3717587,714.9545,727.2569,726.7259,382.8786,
1751406997.3756492,687.075,722.12354,727.52246,587.6824,
1751406997.3795397,688.2256,719.7339,732.9213,958.9666,
1751406997.3834302,672.11743,713.71545,733.6294,947.6378,
1751406997.3873208,638.75055,696.36816,726.2833,581.2214,
1751406997.3912113,607.06525,692.2084,721.504,282.8664,
1751406997.3951018,588.92145,703.36017,723.2741,439.08014,
1751406997.3989923,594.6744,703.09467,732.30176,822.8438,
1751406997.4028828,578.38916,698.3153,733.6294,873.0269,
1751406997.4067733,549.80164,700.528,729.38104,543.25214,
1751406997.4106638,540.5085,695.3061,728.76154,229.23152,
1751406997.4145544,545.1993,691.67737,721.41547,350.39676,
1751406997.4184449,561.48444,698.1383,729.11554,758.6767,
1751406997.4223354,562.8121,696.45667,739.5593,873.2039,
1751406997.4262259,555.112,695.57166,732.39026,594.0548,
1751406997.4301164,545.55334,698.4923,725.7523,266.13867,
1751406997.4340069,546.5269,699.0234,723.7167,326.67703,
1751406997.4378974,575.11444,698.4038,725.9293,736.5501,
1751406997.4417880,598.0376,694.1555,731.59375,920.4663,
1751406997.4456785,602.72845,700.882,730.3546,690.43823,
1751406997.4495690,591.3111,711.8568,724.0707,337.47482,
1751406997.4534595,595.55945,714.24646,718.14075,335.61618,
1751406997.4573500,628.8378,718.49475,725.30975,738.1432,
1751406997.4612403,650.25635,719.7339,730.8857,969.49884,
1751406997.4651308,651.584,715.9281,724.4247,781.59985,
1751406997.4690213,652.64606,716.63617,717.52124,429.43295,
1751406997.4729118,664.15186,720.0879,719.6454,370.13367,
1751406997.4768023,686.6325,721.5925,724.69025,738.3202,
1751406997.4806929,707.34296,726.9914,729.29254,1021.71765,
1751406997.4845834,710.3522,730.0006,727.3454,881.96606,
1751406997.4884739,705.1303,723.6282,721.41547,519.4439,
1751406997.4923644,711.14874,725.7523,719.8224,387.74643,
1751406997.4962549,723.1856,730.7972,718.9373,718.40625,
1751406997.5001454,739.7363,723.1856,727.61096,1038.1798,
1751406997.5040359,747.08234,728.319,730.3546,943.38947,
1751406997.5079265,730.5317,736.37305,721.504,582.6375,
1751406997.5118170,721.14996,735.2225,717.52124,389.16254,
1751406997.5157075,730.8857,739.47076,722.30054,673.0025,
1751406997.5195980,749.118,737.7892,730.0891,1028.9751,
1751406997.5234885,755.933,731.50525,730.7087,990.03235,
1751406997.5273790,743.6306,732.8328,724.51324,643.7069,
1751406997.5312696,733.2753,733.1868,717.69824,406.86383,
1751406997.5351601,742.3915,733.36383,721.32697,633.6172,
1751406997.5390506,760.53534,732.47876,732.8328,1016.9383,
1751406997.5429411,765.31464,734.86847,732.8328,1033.135,
1751406997.5468316,749.118,733.36383,724.1592,697.8728,
1751406997.5507221,737.0811,734.2489,717.3442,417.92712,
1751406997.5546126,743.9846,738.4087,724.4247,588.83295,
1751406997.5585032,757.34906,735.93054,733.9834,979.5886,
1751406997.5623937,761.6859,737.3466,734.69147,1053.757,
1751406997.5662842,753.98584,738.1432,729.20404,753.01227,
1751406997.5701747,739.7363,736.01904,717.52124,433.2387,
1751406997.5740652,738.3202,734.60297,722.21204,535.46356,
1751406997.5779557,754.8709,736.6386,732.47876,935.95496,
1751406997.5818462,762.3054,735.93054,729.38104,1066.2363,
1751406997.5857368,755.0479,723.8052,724.77875,799.3896,
1751406997.5896273,738.3202,727.3454,724.95575,460.4987,
1751406997.5935178,740.44434,739.02826,723.7167,499.2645,
1751406997.5974083,765.49164,741.2409,729.7351,901.34894,
1751406997.6012988,765.40314,734.1604,736.28455,1077.4767,
1751406997.6051893,744.2501,726.7259,728.4075,835.0577,
1751406997.6090798,732.7443,724.69025,723.4511,484.92645,
1751406997.6129704,731.0627,727.3454,726.3718,458.55154,
1751406997.6168606,738.3202,727.87646,730.7087,835.4117,
1751406997.6207511,751.7732,727.4339,738.0547,1073.4054,
1751406997.6246417,746.28577,725.9293,735.57654,886.47986,
1751406997.6285322,726.8144,726.3718,726.2833,519.1784,
1751406997.6324227,721.14996,728.67303,723.9822,429.34445,
1751406997.6363132,736.7271,730.0891,729.02704,782.04236,
1751406997.6402037,757.08356,729.7351,732.21326,1067.387,
1751406997.6440942,751.6847,729.29254,729.9121,929.22845,
1751406997.6479847,732.03625,726.7259,723.9822,557.32465,
1751406997.6518753,727.3454,722.21204,725.5753,409.07648,
1751406997.6557658,734.957,720.61896,733.8064,721.504,
1751406997.6596563,749.295,721.5925,738.76276,1044.0212,
1751406997.6635468,747.9674,724.77875,733.0983,953.92175,
1751406997.6674373,732.6558,726.5489,728.85004,591.84216,
1751406997.6713278,728.23047,726.9914,726.1063,398.80975,
1751406997.6752183,734.60297,724.86725,729.7351,664.32886,
1751406997.6791089,744.0731,715.22003,736.28455,1016.4072,
1751406997.6829994,742.0375,724.51324,732.7443,988.2622,
1751406997.6868899,727.1684,730.2661,722.7431,639.45856,
1751406997.6907804,714.866,724.69025,718.5833,388.6315,
1751406997.6946709,715.9281,726.9029,722.9201,602.99396,
1751406997.6985614,733.36383,730.6202,733.7179,984.8105,
1751406997.7024519,739.9133,727.78796,738.1432,1017.82336,
1751406997.7063425,728.76154,725.48676,727.69946,694.5981,
1751406997.7102330,715.39703,722.9201,722.7431,406.95233,
1751406997.7141235,720.1764,722.9201,729.9121,559.0063,
1751406997.7180140,736.9926,725.13275,735.488,950.02747,
1751406997.7219045,743.09955,725.48676,735.75354,1033.9315,
1751406997.7257950,732.21326,719.3798,729.6466,734.4259,
1751406997.7296855,716.7247,719.2028,722.5661,414.38687,
1751406997.7335761,713.0959,727.87646,721.06146,503.6898,
1751406997.7374666,725.5753,728.67303,731.4167,900.6409,
1751406997.7413571,738.58575,721.76953,736.9041,1040.0385,
1751406997.7452476,733.0098,722.21204,730.5317,778.94464,
1751406997.7491381,722.5661,725.04425,723.4511,437.92957,
1751406997.7530286,722.7431,717.4327,718.49475,459.61362,
1751406997.7569191,736.9041,719.7339,726.0178,853.64404,
1751406997.7608097,744.5157,732.5673,736.28455,1049.4202,
1751406997.7647002,738.2317,730.8857,735.0455,823.9944,
1751406997.7685907,722.30054,717.87524,726.8144,464.48148,
1751406997.7724810,719.9109,726.7259,724.3362,428.99042,
1751406997.7763715,736.10754,737.3466,729.02704,803.3724,
1751406997.7802620,745.4007,730.6202,728.14197,1040.3925,
1751406997.7841525,735.134,726.7259,724.95575,863.55676,
1751406997.7880430,717.78674,724.2477,724.51324,511.74387,
1751406997.7919335,715.8396,722.38904,724.1592,416.51102,
1751406997.7958241,725.13275,725.30975,726.0178,759.2077,
1751406997.7997146,738.3202,727.61096,728.85004,1049.9512,
1751406997.8036051,737.8777,728.319,729.29254,926.5733,
1751406997.8074956,721.85803,725.22125,726.5489,569.7156,
1751406997.8113861,714.866,727.3454,721.504,415.27194,
1751406997.8152766,724.2477,734.2489,726.0178,712.2993,
1751406997.8191671,740.09033,738.2317,730.0891,1042.9591,
1751406997.8230577,738.76276,732.7443,731.68225,973.2161,
1751406997.8269482,720.61896,728.05347,729.02704,617.24347,
1751406997.8308387,711.6798,729.7351,724.4247,407.30637,
1751406997.8347292,720.79596,730.5317,728.76154,659.107,
1751406997.8386197,735.93054,717.96375,732.8328,1021.98315,
1751406997.8425102,730.5317,716.9902,731.50525,1001.6267,
1751406997.8464007,714.24646,731.85925,729.9121,661.6737,
1751406997.8502913,707.25446,736.19604,726.1948,412.1742,
1751406997.8541818,709.0246,734.1604,727.78796,612.8182,
1751406997.8580723,727.0799,734.1604,733.8064,997.02435,
1751406997.8619628,738.93976,730.8857,734.2489,1034.02,
1751406997.8658533,725.04425,724.0707,726.1948,713.98096,
1751406997.8697438,709.90967,727.0799,721.504,419.96277,
1751406997.8736343,718.6718,737.7892,726.3718,562.7236,
1751406997.8775249,739.7363,722.9201,730.3546,963.4804,
1751406997.8814154,743.27655,707.697,729.11554,1053.58,
1751406997.8853059,726.7259,734.3374,727.0799,757.6146,
1751406997.8891964,712.2108,741.3294,725.9293,438.01807,
1751406997.8930869,715.22003,735.311,727.61096,514.39905,
1751406997.8969774,732.7443,737.0811,732.8328,912.2352,
1751406997.9008679,742.83405,736.7271,731.94775,1058.0052,
1751406997.9047585,733.0983,728.67303,726.4603,797.26544,
1751406997.9086490,718.40625,722.12354,725.13275,459.08258,
1751406997.9125395,719.9109,725.13275,722.47754,471.20795,
1751406997.9164300,734.4259,725.5753,727.61096,856.4762,
1751406997.9203205,742.83405,726.4603,734.957,1053.757,
1751406997.9242110,731.2397,720.79596,731.0627,835.3232,
1751406997.9281015,716.54767,719.8224,723.0086,479.8816,
1751406997.9319918,715.13153,729.7351,719.9994,425.9812,
1751406997.9358823,729.20404,729.9121,728.58453,792.92865,
1751406997.9397728,744.0731,729.9121,730.0891,1041.6316,
1751406997.9436634,742.126,728.58453,723.5397,868.24756,
1751406997.9475539,726.7259,726.9914,719.2913,507.14154,
1751406997.9514444,719.2913,733.9834,717.78674,396.06604,
1751406997.9553349,728.58453,736.37305,725.22125,726.7259,
1751406997.9592254,739.6478,732.21326,731.1512,1021.54065,
1751406997.9631159,735.3995,730.7972,730.7972,905.8628,
1751406997.9670064,716.9902,725.7523,724.60175,538.64984,
1751406997.9708970,708.9361,718.40625,719.2913,372.0808,
1751406997.9747875,716.2821,722.5661,717.0787,671.32086,
1751406997.9786780,729.7351,731.0627,726.2833,998.706,
1751406997.9825685,738.4972,734.60297,733.1868,933.47675,
1751406997.9864590,721.85803,727.61096,724.51324,588.1249,
1751406997.9903495,709.3786,722.30054,720.3534,376.50613,
1751406997.9942400,716.1936,727.78796,726.2833,620.87225,
1751406997.9981306,732.39026,728.23047,734.2489,981.9783,
1751406998.0020211,738.1432,730.7972,731.4167,971.3575,
1751406998.0059116,719.4683,729.02704,721.32697,634.59076,
1751406998.0098021,706.3694,724.2477,721.5925,383.49814,
1751406998.0136926,719.2028,727.61096,726.3718,578.5662,
1751406998.0175831,735.84204,728.23047,731.0627,959.3206,
1751406998.0214736,739.02826,727.52246,734.957,1002.4232,
1751406998.0253642,727.0799,726.2833,731.94775,692.2969,
1751406998.0292547,709.4671,724.86725,726.4603,398.36722,
1751406998.0331452,711.32574,731.68225,732.47876,527.2325,
1751406998.0370357,726.7259,736.8156,741.8605,921.88245,
1751406998.0409262,735.3995,733.0098,740.26733,1023.9303,
1751406998.0448167,727.1684,731.0627,732.7443,743.36505,
1751406998.0487072,709.55566,728.319,723.9822,422.88348,
1751406998.0525978,708.7591,726.2833,726.5489,484.21838,
1751406998.0564883,725.6638,727.3454,733.0098,874.266,
1751406998.0603788,737.4351,729.8236,730.7972,1036.5867,
1751406998.0642693,727.52246,722.30054,727.2569,787.6183,
1751406998.0681598,710.4407,717.4327,723.4511,443.948,
1751406998.0720503,712.4763,727.1684,722.7431,446.16064,
1751406998.0759408,728.14197,734.3374,726.9029,823.9944,
1751406998.0798314,739.6478,733.45233,728.93854,1029.6832,
1751406998.0837219,731.2397,728.67303,728.67303,819.038,
1751406998.0876122,714.689,723.6282,725.7523,469.1723,
1751406998.0915027,712.4763,725.5753,722.7431,406.15576,
1751406998.0953932,726.9914,729.7351,726.7259,759.7388,
1751406998.0992837,743.8961,726.1063,732.5673,1020.1245,
1751406998.1031742,736.46155,727.2569,727.87646,859.0429,
1751406998.1070647,717.3442,729.02704,720.2649,498.2024,
1751406998.1109552,712.1223,726.1948,720.2649,377.6567,
1751406998.1148458,720.1764,723.6282,727.1684,698.9349,
1751406998.1187363,737.6122,724.51324,731.68225,1002.4232,
1751406998.1226268,738.76276,727.2569,726.5489,891.6133,
1751406998.1265173,719.5569,723.4511,721.32697,535.5521,
1751406998.1304078,711.8568,723.8052,718.05225,366.77045,
1751406998.1342983,722.7431,731.3282,726.0178,646.09656,
1751406998.1381888,734.60297,732.30176,736.10754,981.3587,
1751406998.1420794,734.60297,724.1592,732.21326,930.9101,
1751406998.1459699,721.32697,725.04425,726.5489,588.92145,
1751406998.1498604,711.41425,733.1868,725.6638,366.15088,
1751406998.1537509,719.1143,734.0719,728.76154,597.418,
1751406998.1576414,736.8156,733.8064,731.0627,966.3126,
1751406998.1615319,746.02026,730.3546,732.7443,978.61505,
1751406998.1654224,734.69147,728.76154,734.51447,658.3989,
1751406998.1693130,717.69824,730.8857,728.14197,391.72922,
1751406998.1732035,721.14996,731.59375,726.8144,563.96265,
1751406998.1770940,739.9133,732.12476,729.9121,945.6022,
1751406998.1809845,745.2237,729.38104,732.5673,1010.3888,
1751406998.1848750,728.93854,725.8408,726.1063,712.2993,
1751406998.1887655,717.1672,729.6466,719.1143,415.27194,
1751406998.1926560,720.1764,732.03625,728.14197,524.75433,
1751406998.1965466,736.9926,733.36383,735.57654,911.6157,
1751406998.2004371,749.91455,734.1604,733.36383,1031.7189,
1751406998.2043276,732.03625,725.5753,730.9742,759.65027,
1751406998.2082181,712.7419,723.4511,726.9914,437.84106,
1751406998.2121086,718.22925,731.4167,726.1948,485.90002,
1751406998.2159991,730.0891,735.75354,731.0627,863.0257,
1751406998.2198896,738.58575,733.8949,734.957,1041.0121,
1751406998.2237802,731.68225,724.4247,727.69946,813.0196,
1751406998.2276707,711.32574,724.3362,721.85803,465.1895,
1751406998.2315612,709.2901,732.12476,724.0707,444.47903,
1751406998.2354517,726.6374,733.36383,728.85004,815.9403,
1751406998.2393422,741.8605,731.0627,729.20404,1045.0834,
1751406998.2432325,736.9041,724.77875,726.0178,860.90155,
1751406998.2471230,720.79596,723.9822,727.0799,509.1772,
1751406998.2510135,715.6626,732.21326,729.20404,425.8042,
1751406998.2549040,726.6374,739.29376,735.2225,768.5009,
1751406998.2587945,742.48,740.5329,736.5501,1044.9948,
1751406998.2626851,739.5593,736.8156,733.0983,909.9341,
1751406998.2665756,721.23846,732.30176,727.61096,545.0223,
1751406998.2704661,710.1752,730.5317,722.5661,405.0052,
1751406998.2743566,720.97296,733.45233,727.61096,716.9902,
1751406998.2782471,739.47076,736.01904,732.9213,1030.4797,
1751406998.2821376,739.6478,732.21326,732.5673,948.3458,
1751406998.2860281,721.5925,727.1684,728.05347,601.5779,
1751406998.2899187,708.9361,726.7259,723.0971,409.96155,
1751406998.2938092,719.1143,731.3282,723.8937,675.30365,
1751406998.2976997,737.4351,731.77075,730.6202,1026.674,
1751406998.3015902,733.36383,726.4603,735.2225,996.3163,
1751406998.3054807,721.76953,727.61096,731.50525,657.8679,
1751406998.3093712,716.63617,733.0983,726.0178,421.64438,
1751406998.3132617,716.7247,735.311,728.4075,636.18384,
1751406998.3171523,733.2753,732.7443,734.69147,1000.74164,
1751406998.3210428,743.27655,730.6202,734.86847,1023.6648,
1751406998.3249333,724.86725,724.51324,730.0891,708.7591,
1751406998.3288238,707.34296,719.0258,726.1948,420.5823,
1751406998.3327143,713.3614,723.5397,725.9293,562.3695,
1751406998.3366048,733.0983,728.85004,729.6466,957.55054,
1751406998.3404953,741.1524,725.7523,732.8328,1040.835,
1751406998.3443859,729.11554,721.5925,730.0891,744.3386,
1751406998.3482764,717.69824,723.4511,726.7259,434.3893,
1751406998.3521669,719.2028,726.1948,728.14197,526.0819,
1751406998.3560574,733.8064,731.3282,731.68225,913.65137,
1751406998.3599479,742.0375,732.30176,729.8236,1042.9591,
1751406998.3638384,727.96497,730.9742,726.1948,784.6976,
1751406998.3677289,717.2557,729.7351,723.3626,455.98486,
1751406998.3716195,714.9545,730.7087,723.0086,477.4919,
1751406998.3755100,726.2833,730.7972,727.61096,852.1394,
1751406998.3794005,741.6835,727.61096,734.2489,1044.1982,
1751406998.3832910,733.8064,728.319,734.86847,830.1898,
1751406998.3871815,714.866,728.76154,726.1948,483.0678,
1751406998.3910720,709.82117,730.0891,721.94653,439.8767,
1751406998.3949625,722.21204,729.9121,728.93854,795.93787,
1751406998.3988528,732.9213,726.4603,735.93054,1038.6223,
1751406998.4027433,731.68225,724.86725,732.47876,871.3453,
1751406998.4066339,716.2821,724.77875,724.77875,509.79675,
1751406998.4105244,705.4843,725.48676,724.4247,412.43973,
1751406998.4144149,722.5661,729.46954,728.93854,758.9422,
1751406998.4183054,743.09955,728.76154,732.7443,1040.5695,
1751406998.4221959,739.47076,724.2477,732.6558,909.403,
1751406998.4260864,718.6718,726.3718,726.2833,556.1741,
1751406998.4299769,707.52,729.7351,723.3626,399.16376,
1751406998.4338675,717.1672,730.6202,724.77875,695.1291,
1751406998.4377580,735.2225,735.3995,730.7087,1015.8762,
1751406998.4416485,734.0719,735.75354,735.134,941.7079,
1751406998.4455390,721.23846,733.7179,728.85004,595.91345,
1751406998.4494295,712.1223,731.50525,724.3362,389.8706,
1751406998.4533200,722.21204,730.2661,728.05347,645.3885,
1751406998.4572105,745.3122,733.2753,730.7087,999.59106,
1751406998.4611011,739.6478,731.2397,730.2661,971.53455,
1751406998.4649916,713.98096,723.4511,728.05347,632.11255,
1751406998.4688821,704.33374,723.8937,726.2833,388.72,
1751406998.4727726,713.71545,726.7259,726.2833,587.6824,
1751406998.4766631,728.85004,726.5489,727.78796,951.44354,
1751406998.4805536,732.21326,730.0891,730.2661,983.6599,
1751406998.4844441,718.14075,732.21326,727.3454,674.59564,
1751406998.4883347,704.8648,731.1512,719.2913,389.33957,
1751406998.4922252,709.3786,729.46954,721.5925,523.1612,
1751406998.4961157,728.4075,727.78796,733.0983,909.7571,
1751406998.5000062,736.8156,728.76154,731.0627,1004.7244,
1751406998.5038967,722.8316,724.0707,725.13275,721.681,
1751406998.5077872,712.5649,722.12354,724.51324,408.36844,
1751406998.5116777,718.05225,727.52246,726.8144,483.1563,
1751406998.5155683,731.68225,730.4431,730.7972,870.3717,
1751406998.5194588,741.5065,731.50525,731.4167,1017.91187,
1751406998.5233493,729.6466,729.29254,728.05347,773.0147,
1751406998.5272398,715.30853,726.7259,723.4511,444.0365,
1751406998.5311303,713.98096,726.8144,722.12354,455.0113,
1751406998.5350208,731.4167,728.76154,725.5753,836.29675,
1751406998.5389113,745.0467,732.6558,731.4167,1041.8086,
1751406998.5428019,734.3374,727.3454,731.0627,843.6428,
1751406998.5466924,718.7603,720.88446,727.78796,499.4415,
1751406998.5505829,713.2729,725.48676,725.7523,447.75378,
1751406998.5544734,727.87646,727.96497,727.52246,808.6828,
1751406998.5583637,742.0375,725.22125,734.86847,1055.5271,
1751406998.5622542,734.51447,724.60175,735.488,894.6225,
1751406998.5661447,715.22003,723.6282,728.76154,545.81885,
1751406998.5700352,707.7855,724.60175,726.9029,433.0617,
1751406998.5739257,722.5661,732.03625,726.4603,758.7652,
1751406998.5778162,739.20526,730.7087,727.4339,1043.4017,
1751406998.5817068,736.7271,725.5753,730.2661,922.9445,
1751406998.5855973,722.30054,725.30975,723.9822,575.6455,
1751406998.5894878,711.06024,725.7523,719.7339,404.29715,
1751406998.5933783,719.9109,727.96497,727.2569,682.47266,
1751406998.5972688,734.51447,728.76154,731.0627,1004.9014,
1751406998.6011593,733.2753,725.48676,728.496,938.0791,
1751406998.6050498,722.03503,724.2477,723.4511,599.63074,
1751406998.6089404,715.48553,726.5489,718.8488,383.2326,
1751406998.6128309,720.2649,725.13275,723.2741,607.5078,
1751406998.6167214,740.26733,724.1592,727.2569,961.6218,
1751406998.6206119,743.27655,724.0707,728.76154,962.8609,
1751406998.6245024,721.85803,720.70746,726.2833,637.3344,
1751406998.6283929,708.3165,724.95575,719.0258,373.76245,
1751406998.6322834,714.15796,729.46954,724.0707,554.1384,
1751406998.6361740,730.4431,726.5489,730.0006,932.4147,
1751406998.6400645,739.38226,726.3718,728.58453,987.28864,
1751406998.6439550,729.7351,724.69025,725.13275,685.12787,
1751406998.6478455,713.89246,728.23047,721.32697,390.84418,
1751406998.6517360,711.32574,729.02704,723.9822,513.69104,
1751406998.6556265,728.58453,725.8408,730.7972,900.02136,
1751406998.6595170,744.4271,730.0006,729.29254,1008.7957,
1751406998.6634076,732.47876,734.3374,725.30975,738.67426,
1751406998.6672981,716.63617,732.30176,719.5569,424.03406,
1751406998.6711886,720.88446,730.2661,716.1936,484.12988,
1751406998.6750791,728.93854,729.11554,726.4603,865.14984,
1751406998.6789696,737.9662,729.9121,730.2661,1030.5682,
1751406998.6828601,738.76276,729.11554,726.5489,797.708,
1751406998.6867507,721.504,726.4603,724.69025,455.0113,
1751406998.6906412,716.0166,724.60175,723.2741,454.56876,
1751406998.6945317,733.0098,732.12476,728.93854,827.8002,
1751406998.6984222,745.3122,738.2317,732.21326,1036.7637,
1751406998.7023127,739.29376,734.86847,725.48676,842.66925,
1751406998.7062032,723.3626,730.0891,720.2649,495.2817,
1751406998.7100937,717.1672,728.85004,723.8052,430.49503,
1751406998.7139840,732.7443,732.7443,726.9914,786.37915,
1751406998.7178745,755.2249,735.75354,729.20404,1048.6235,
1751406998.7217650,739.47076,728.58453,727.3454,887.0994,
1751406998.7256556,706.98895,723.9822,725.22125,527.58655,
1751406998.7295461,706.81195,728.67303,725.04425,414.8294,
1751406998.7334366,718.5833,731.68225,726.6374,734.0719,
1751406998.7373271,731.3282,730.2661,732.47876,1031.0109,
1751406998.7412176,732.8328,728.14197,733.0983,932.06067,
1751406998.7451081,715.8396,728.4075,728.23047,581.75244,
1751406998.7489986,710.52924,730.0891,723.5397,409.4305,
1751406998.7528892,721.94653,732.6558,725.7523,693.18195,
1751406998.7567797,735.66504,735.134,730.1776,1029.6832,
1751406998.7606702,738.0547,732.7443,727.2569,982.59784,
1751406998.7645607,725.5753,728.67303,726.1948,642.55634,
1751406998.7684512,710.3522,729.7351,727.69946,413.94434,
1751406998.7723417,718.49475,733.5409,730.0006,641.0517,
1751406998.7762322,737.3466,729.29254,734.77997,1002.4232,
1751406998.7801228,738.4087,726.5489,733.7179,1007.0256,
1751406998.7840133,727.69946,728.93854,728.23047,692.65094,
1751406998.7879038,720.1764,731.3282,724.0707,430.40652,
1751406998.7917943,723.8052,735.75354,723.0086,599.4537,
1751406998.7956848,735.488,737.0811,727.96497,975.2518,
1751406998.7995753,737.6122,737.7892,730.3546,1034.551,
1751406998.8034658,726.0178,734.86847,724.3362,732.21326,
1751406998.8073564,717.69824,734.1604,719.4683,433.50424,
1751406998.8112469,716.63617,737.1696,719.9994,542.45557,
1751406998.8151374,729.29254,736.9926,724.86725,926.48474,
1751406998.8190279,734.957,735.488,731.68225,1039.065,
1751406998.8229184,724.51324,731.85925,728.93854,772.5722,
1751406998.8268089,711.5913,730.5317,721.94653,453.41818,
1751406998.8306994,706.2809,729.38104,723.6282,498.64493,
1751406998.8345900,722.9201,729.20404,730.7087,878.69135,
1751406998.8384805,736.37305,733.9834,734.69147,1047.296,
1751406998.8423710,729.7351,731.4167,726.9029,815.32074,
1751406998.8462615,711.5913,726.9914,714.15796,476.60684,
1751406998.8501520,712.9189,729.5581,717.69824,460.6757,
1751406998.8540425,729.11554,732.7443,730.0891,827.0921,
1751406998.8579330,740.17883,739.9133,734.0719,1047.7385,
1751406998.8618236,738.1432,738.0547,731.2397,855.0601,
1751406998.8657141,724.60175,732.5673,725.8408,503.07025,
1751406998.8696043,718.9373,731.50525,723.0971,425.71567,
1751406998.8734949,725.48676,733.0983,724.69025,766.8193,
1751406998.8773854,740.7984,734.69147,728.319,1028.6211,
1751406998.8812759,736.6386,729.11554,731.2397,890.37415,
1751406998.8851664,715.48553,727.0799,726.7259,538.2958,
1751406998.8890569,708.5821,729.8236,721.14996,399.5178,
1751406998.8929474,720.79596,732.21326,722.6546,713.0074,
1751406998.8968379,736.28455,736.01904,728.23047,1020.1245,
1751406998.9007285,736.8156,735.134,733.1868,929.22845,
1751406998.9046190,725.7523,732.30176,728.58453,579.0087,
1751406998.9085095,714.9545,729.5581,723.0971,386.24182,
1751406998.9124000,715.39703,729.8236,726.1948,660.70013,
1751406998.9162905,735.66504,727.52246,730.5317,1000.2106,
1751406998.9201810,739.5593,727.69946,734.51447,959.9402,
1751406998.9240716,721.76953,724.0707,727.69946,626.7137,
1751406998.9279621,709.0246,719.8224,721.06146,388.01196,
1751406998.9318526,715.22003,725.9293,728.93854,606.3572,
1751406998.9357431,731.94775,732.6558,733.6294,967.90576,
1751406998.9396336,735.2225,730.8857,730.7087,981.2702,
1751406998.9435241,726.3718,723.6282,731.59375,675.12665,
1751406998.9474146,712.2108,723.0086,728.58453,398.72122,
1751406998.9513052,716.2821,730.9742,727.61096,556.88214,
1751406998.9551957,736.28455,732.9213,731.85925,942.68146,
1751406998.9590862,739.11676,728.4075,731.3282,1013.9291,
1751406998.9629767,726.1948,728.496,723.8937,721.32697,
1751406998.9668672,712.8304,728.76154,719.8224,414.03284,
1751406998.9707577,718.9373,726.9029,719.8224,513.60254,
1751406998.9746482,739.29376,728.85004,724.86725,903.0306,
1751406998.9785388,746.63983,733.0983,732.6558,1027.3821,
1751406998.9824293,736.8156,732.5673,733.1868,770.53656,
1751406998.9863198,721.681,729.11554,724.86725,444.30203,
1751406998.9902103,721.504,730.9742,722.12354,484.57242,
1751406998.9941008,734.2489,733.1868,730.5317,864.3533,
1751406998.9979913,744.4271,730.7087,732.12476,1037.4718,
1751406999.0018818,732.6558,725.6638,729.7351,811.33795,
1751406999.0057724,714.06946,726.2833,726.1948,465.36655,
1751406999.0096629,717.87524,733.2753,722.8316,442.5319,
1751406999.0135534,735.488,735.75354,726.6374,807.08966,
1751406999.0174439,749.472,731.77075,733.8064,1035.7017,
1751406999.0213344,738.4972,732.9213,733.2753,854.6176,
1751406999.0252249,717.1672,733.6294,726.9029,504.57486,
1751406999.0291152,714.33496,727.3454,725.9293,416.86505,
1751406999.0330057,727.1684,731.68225,732.6558,759.56177,
1751406999.0368962,743.8076,738.67426,734.60297,1038.1798,
1751406999.0407867,741.6835,733.8064,730.7087,905.6858,
1751406999.0446773,724.51324,728.23047,726.0178,552.1913,
1751406999.0485678,717.52124,728.05347,724.95575,408.72244,
1751406999.0524583,730.4431,729.5581,733.0983,715.48553,
1751406999.0563488,743.36505,734.60297,737.8777,1031.9844,
1751406999.0602393,737.5237,733.0983,736.5501,945.4251,
1751406999.0641298,726.4603,725.8408,731.77075,595.3824,
1751406999.0680203,719.9994,727.52246,726.6374,400.31436,
1751406999.0719109,725.22125,731.77075,730.4431,660.16907,
1751406999.0758014,741.595,731.50525,735.66504,1005.6095,
1751406999.0796919,743.7191,728.4075,734.2489,976.7564,
1751406999.0835824,727.78796,724.95575,730.9742,650.16785,
1751406999.0874729,717.52124,729.29254,727.3454,413.6788,
1751406999.0913634,723.3626,735.134,723.7167,621.31476,
1751406999.0952539,742.3915,733.45233,729.7351,992.51056,
1751406999.0991445,746.28577,729.38104,736.01904,1017.2038,
1751406999.1030350,725.5753,730.5317,731.85925,702.0326,
1751406999.1069255,713.4499,732.21326,727.1684,418.45816,
1751406999.1108160,718.6718,730.0006,729.29254,564.6707,
1751406999.1147065,731.0627,728.4075,735.84204,952.4171,
1751406999.1185970,735.93054,730.7087,738.2317,1040.481,
1751406999.1224875,723.7167,729.5581,731.59375,755.4904,
1751406999.1263781,723.9822,723.8052,727.61096,446.24915,
1751406999.1302686,730.6202,727.0799,729.46954,526.8785,
1751406999.1341591,723.5397,734.957,733.0098,896.3041,
1751406999.1380496,731.3282,737.6122,732.8328,1033.666,
1751406999.1419401,727.69946,733.2753,728.319,786.46765,
1751406999.1458306,705.4843,730.7972,722.47754,447.04572,
1751406999.1497211,704.5108,730.5317,720.53046,463.15387,
1751406999.1536117,713.80396,727.3454,728.85004,847.6256,
1751406999.1575022,728.319,724.69025,731.77075,1045.3489,
1751406999.1613927,725.39825,725.22125,728.76154,834.9692,
1751406999.1652832,711.23724,726.5489,723.1856,491.65292,
1751406999.1691737,709.90967,728.14197,721.76953,445.5411,
1751406999.1730642,720.0879,730.2661,728.05347,807.7977,
1751406999.1769547,734.86847,731.3282,733.1868,1053.049,
1751406999.1808453,729.6466,725.13275,729.6466,882.14307,
1751406999.1847355,714.42346,723.3626,725.13275,529.3566,
1751406999.1886261,708.7591,724.60175,723.7167,422.52945,
1751406999.1925166,719.3798,723.0971,728.496,755.2249,
1751406999.1964071,734.86847,730.7972,731.1512,1042.4281,
1751406999.2002976,734.4259,737.0811,727.4339,922.5905,
1751406999.2041881,721.41547,727.78796,724.0707,565.9983,
1751406999.2080786,708.228,721.504,723.0086,398.72122,
1751406999.2119691,717.96375,726.1948,725.8408,695.1291,
1751406999.2158597,736.7271,731.0627,732.5673,1025.7004,
1751406999.2197502,736.37305,729.46954,730.7972,951.8861,
1751406999.2236407,721.504,725.7523,726.2833,601.4008,
1751406999.2275312,713.0074,726.2833,727.96497,390.49014,
1751406999.2314217,716.9902,728.93854,728.85004,632.7321,
1751406999.2353122,737.7007,730.7087,729.7351,988.2622,
1751406999.2392027,743.18805,729.20404,732.5673,974.63226,
1751406999.2430933,726.9029,725.04425,729.6466,643.08734,
1751406999.2469838,715.22003,721.23846,722.38904,393.58786,
1751406999.2508743,724.0707,722.12354,724.1592,575.46844,
1751406999.2547648,740.00183,727.87646,730.7087,949.76196,
1751406999.2586553,739.02826,730.5317,731.85925,1000.2991,
1751406999.2625458,725.9293,727.61096,724.95575,691.8544,
1751406999.2664363,711.6798,721.41547,721.14996,398.45572,
1751406999.2703269,713.80396,725.39825,724.3362,526.79,
1751406999.2742174,728.23047,731.68225,726.1948,915.24445,
1751406999.2781079,735.93054,728.23047,729.02704,1018.4429,
1751406999.2819984,724.95575,725.9293,729.11554,740.17883,
1751406999.2858889,710.3522,727.1684,724.3362,421.55588,
1751406999.2897794,714.6005,726.2833,725.13275,490.23682,
1751406999.2936699,728.85004,728.23047,731.85925,882.23157,
1751406999.2975605,739.20526,732.5673,736.28455,1039.596,
1751406999.3014510,735.75354,731.59375,734.77997,795.93787,
1751406999.3053415,716.8132,725.7523,726.1948,456.4274,
1751406999.3092320,712.4763,725.30975,724.95575,459.52512,
1751406999.3131225,730.1776,731.4167,732.30176,837.5359,
1751406999.3170130,739.38226,735.311,735.311,1039.6844,
1751406999.3209035,733.9834,731.3282,731.1512,835.76575,
1751406999.3247941,720.3534,726.9029,726.2833,491.38742,
1751406999.3286846,714.33496,726.4603,722.9201,433.94678,
1751406999.3325751,725.48676,730.9742,727.87646,786.37915,
1751406999.3364656,740.17883,729.8236,734.957,1043.9327,
1751406999.3403559,735.66504,721.94653,733.7179,885.2408,
1751406999.3442464,717.78674,723.7167,727.61096,525.28534,
1751406999.3481369,708.7591,726.1063,722.12354,401.64194,
1751406999.3520274,718.40625,727.78796,729.7351,727.69946,
1751406999.3559179,734.51447,731.68225,734.86847,1029.2407,
1751406999.3598084,729.6466,727.78796,730.1776,917.2801,
1751406999.3636990,711.5913,726.9029,723.9822,564.7592,
1751406999.3675895,713.0074,729.5581,722.30054,392.17175,
1751406999.3714800,724.60175,731.3282,726.9029,675.12665,
1751406999.3753705,734.77997,729.9121,731.1512,1009.4152,
1751406999.3792610,738.1432,729.29254,732.39026,956.75397,
1751406999.3831515,727.0799,726.4603,726.9914,617.332,
1751406999.3870420,716.0166,725.48676,719.6454,396.33157,
1751406999.3909326,722.21204,727.3454,723.8052,624.58954,
1751406999.3948231,737.2581,727.52246,733.8064,985.87256,
1751406999.3987136,737.8777,728.496,732.8328,987.6427,
1751406999.4026041,726.3718,727.0799,728.23047,658.6645,
1751406999.4064946,714.33496,724.95575,727.69946,395.6235,
1751406999.4103851,713.0074,728.05347,728.319,568.03394,
1751406999.4142756,727.61096,732.30176,730.8857,952.5942,
1751406999.4181662,736.7271,728.319,733.9834,1014.63715,
1751406999.4220567,724.69025,723.1856,732.47876,705.8384,
1751406999.4259472,713.0074,723.3626,728.4075,407.66037,
1751406999.4298377,714.866,728.05347,727.4339,524.22327,
1751406999.4337282,731.3282,730.6202,732.6558,909.5801,
1751406999.4376187,737.9662,728.14197,731.50525,1021.0981,
1751406999.4415092,718.31775,727.2569,726.8144,750.09155,
1751406999.4453998,702.0326,726.2833,724.86725,425.9812,
1751406999.4492903,704.5108,721.76953,726.8144,473.0666,
1751406999.4531808,721.41547,718.8488,729.8236,862.2291,
1751406999.4570713,733.9834,724.69025,729.20404,1036.2327,
1751406999.4609618,721.23846,727.52246,728.05347,796.99994,
1751406999.4648523,706.81195,727.2569,723.1856,451.2055,
1751406999.4687428,704.8648,728.319,721.504,434.21228,
1751406999.4726334,716.63617,725.7523,723.4511,804.25745,
1751406999.4765239,730.2661,726.4603,729.38104,1031.7189,
1751406999.4804144,723.0971,727.2569,730.4431,838.68646,
1751406999.4843049,711.6798,728.05347,720.70746,480.85516,
1751406999.4881954,705.8384,726.7259,716.9902,410.6696,
1751406999.4920859,717.4327,723.5397,726.1063,764.16406,
1751406999.4959764,733.45233,726.1948,727.1684,1030.1257,
1751406999.4998667,730.3546,725.5753,727.69946,891.5248,
1751406999.5037572,717.69824,721.76953,729.9121,535.37506,
1751406999.5076478,710.3522,721.85803,725.13275,398.89825,
1751406999.5115383,724.95575,726.3718,726.9029,718.31775,
1751406999.5154288,741.595,728.4075,729.8236,1026.0544,
1751406999.5193193,736.9041,727.96497,728.496,933.7423,
1751406999.5232098,718.5833,723.8937,724.51324,582.28345,
1751406999.5271003,707.874,719.0258,719.9994,394.0304,
1751406999.5309908,719.8224,720.3534,724.86725,669.9933,
1751406999.5348814,737.7892,731.0627,732.21326,1010.1233,
1751406999.5387719,738.67426,735.84204,730.6202,965.6931,
1751406999.5426624,723.9822,730.3546,725.39825,629.9884,
1751406999.5465529,713.1844,725.04425,722.8316,393.23383,
1751406999.5504434,716.7247,725.5753,726.2833,609.89746,
1751406999.5543339,733.5409,729.11554,735.2225,981.0047,
1751406999.5582244,737.9662,731.77075,735.84204,1000.2106,
1751406999.5621150,727.4339,732.30176,730.0006,682.9152,
1751406999.5660055,722.03503,728.4075,726.1948,410.05005,
1751406999.5698960,723.3626,731.0627,728.23047,570.2466,
1751406999.5737865,741.4179,733.0983,732.30176,957.0195,
1751406999.5776770,755.8445,730.3546,735.3995,1031.8074,
1751406999.5815675,737.6122,730.0891,730.4431,730.9742,
1751406999.5854580,720.0879,729.5581,721.06146,421.64438,
1751406999.5893486,721.504,728.67303,720.79596,519.0014,
1751406999.5932391,735.0455,729.9121,731.2397,908.42944,
1751406999.5971296,745.2237,725.39825,735.93054,1039.773,
1751406999.6010201,736.19604,724.69025,729.29254,777.70557,
1751406999.6049106,720.70746,727.1684,723.4511,443.8595,
1751406999.6088011,723.3626,728.23047,722.30054,478.554,
1751406999.6126916,736.37305,730.3546,729.38104,864.08777,
1751406999.6165822,742.2145,734.1604,735.75354,1047.2075,
1751406999.6204727,738.4972,732.8328,729.8236,821.78174,
1751406999.6243632,722.38904,726.1063,725.9293,480.0586,
1751406999.6282537,716.0166,723.0086,728.58453,452.3561,
1751406999.6321442,731.68225,726.7259,732.6558,822.6668,
1751406999.6360347,739.9133,730.8857,734.957,1054.642,
1751406999.6399252,731.1512,732.47876,733.36383,867.89355,
1751406999.6438158,718.22925,729.46954,729.7351,516.61176,
1751406999.6477063,709.55566,726.6374,725.48676,428.81342,
1751406999.6515968,722.9201,733.6294,729.02704,770.62506,
1751406999.6554871,740.44434,733.2753,734.3374,1047.296,
1751406999.6593776,734.2489,727.61096,731.2397,909.8456,
1751406999.6632681,717.1672,728.14197,726.0178,551.4832,
1751406999.6671586,713.3614,724.69025,728.14197,399.2523,
1751406999.6710491,725.04425,723.7167,734.1604,707.16595,
1751406999.6749396,735.488,730.2661,736.9926,1026.0544,
1751406999.6788301,732.30176,730.9742,734.2489,941.3538,
1751406999.6827207,718.14075,725.39825,726.9914,596.9755,
1751406999.6866112,708.7591,725.39825,724.77875,400.31436,
1751406999.6905017,716.63617,726.2833,730.8857,649.3713,
1751406999.6943922,735.311,729.46954,734.60297,998.2634,
1751406999.6982827,738.85126,728.319,733.1868,975.87134,
1751406999.7021732,722.7431,722.6546,728.58453,638.308,
1751406999.7060637,720.0879,728.85004,725.04425,389.60507,
1751406999.7099543,720.4419,734.77997,725.9293,588.4789,
1751406999.7138448,731.77075,732.6558,730.0891,964.71954,
1751406999.7177353,739.6478,729.9121,731.77075,998.3519,
1751406999.7216258,719.4683,724.77875,726.7259,682.8267,
1751406999.7255163,706.0154,724.86725,723.4511,401.28793,
1751406999.7294068,709.3786,725.22125,726.1063,546.7924,
1751406999.7332973,724.77875,719.6454,729.8236,931.88367,
1751406999.7371879,736.37305,721.681,733.36383,1018.17737,
1751406999.7410784,722.12354,724.77875,730.0891,733.8064,
1751406999.7449689,707.9625,725.6638,722.47754,421.64438,
1751406999.7488594,711.5913,731.3282,720.0879,500.06104,
1751406999.7527499,727.1684,733.7179,723.7167,891.3477,
1751406999.7566404,735.488,730.4431,728.85004,1035.6132,
1751406999.7605309,728.14197,724.77875,727.87646,779.7412,
1751406999.7644215,715.13153,721.32697,724.95575,449.87793,
1751406999.7683120,713.71545,724.1592,724.2477,471.03094,
1751406999.7722025,729.38104,726.6374,730.9742,851.07733,
1751406999.7760930,740.9754,728.76154,735.75354,1043.7557,
1751406999.7799835,733.1868,728.85004,730.0891,828.77374,
1751406999.7838740,715.22003,726.0178,723.6282,478.46548,
1751406999.7877645,709.90967,727.3454,726.4603,434.92035,
1751406999.7916551,723.2741,731.85925,732.6558,801.5138,
1751406999.7955456,738.1432,730.0891,728.85004,1046.6764,
1751406999.7994361,732.9213,721.94653,729.29254,874.88556,
1751406999.8033266,721.76953,723.1856,730.7972,521.39105,
1751406999.8072171,717.52124,728.23047,725.04425,420.4053,
1751406999.8111074,725.13275,732.8328,729.46954,750.44556,
1751406999.8149979,737.5237,735.84204,736.6386,1036.8522,
1751406999.8188884,734.86847,729.46954,734.86847,918.16516,
1751406999.8227789,721.06146,726.5489,728.319,563.0776,
1751406999.8266695,715.7511,727.87646,723.5397,402.704,
1751406999.8305600,725.48676,726.7259,729.20404,697.43024,
1751406999.8344505,737.9662,729.8236,734.2489,1018.97394,
1751406999.8383410,739.6478,730.0891,729.29254,951.6206,
1751406999.8422315,729.20404,726.5489,726.2833,609.0124,
1751406999.8461220,718.6718,726.6374,726.4603,395.4465,
1751406999.8500125,725.13275,727.78796,730.7972,640.0781,
1751406999.8539031,744.6042,731.2397,733.8064,1000.74164,
1751406999.8577936,747.6134,732.7443,730.0891,988.1737,
1751406999.8616841,729.46954,724.3362,723.6282,650.34485,
1751406999.8655746,715.13153,722.8316,720.88446,398.72122,
1751406999.8694651,720.88446,731.85925,726.2833,589.45245,
1751406999.8733556,739.11676,727.4339,732.39026,960.55975,
1751406999.8772461,741.949,724.2477,736.28455,1006.9371,
1751406999.8811367,727.61096,727.61096,729.8236,703.27167,
1751406999.8850272,716.3706,726.9029,725.48676,415.1834,
1751406999.8889177,721.06146,729.9121,733.0098,544.7568,
1751406999.8928082,731.85925,733.36383,736.9926,930.202,
1751406999.8966987,743.36505,732.30176,738.1432,1033.2235,
1751406999.9005892,735.311,728.85004,735.93054,750.00305,
1751406999.9044797,717.96375,726.1948,727.61096,430.58353,
1751406999.9083703,719.2028,729.9121,725.39825,500.68057,
1751406999.9122608,732.8328,731.68225,730.3546,881.96606,
1751406999.9161513,743.45355,728.496,735.311,1035.7017,
1751406999.9200418,734.957,726.2833,732.21326,797.6195,
1751406999.9239323,720.79596,725.30975,725.22125,461.9148,
1751406999.9278228,718.5833,727.52246,722.12354,464.21594,
1751406999.9317133,730.7972,729.7351,727.78796,836.03125,
1751406999.9356039,746.55133,731.77075,734.1604,1043.4017,
1751406999.9394944,738.0547,727.96497,729.02704,841.7842,
1751406999.9433849,717.52124,724.77875,723.0086,487.84717,
1751406999.9472754,713.89246,725.5753,724.4247,427.4858,
1751406999.9511659,725.7523,728.67303,730.4431,779.7412,
1751406999.9550564,743.6306,728.05347,731.4167,1035.0822,
1751406999.9589469,739.9133,723.0086,730.0891,877.4522,
1751406999.9628375,718.5833,721.23846,727.3454,524.4888,
1751406999.9667280,711.7683,727.4339,723.1856,411.55466,
1751406999.9706182,723.2741,733.2753,725.04425,729.8236,
1751406999.9745088,740.7099,737.5237,732.9213,1029.2407,
1751406999.9783993,739.6478,736.28455,733.36383,920.6434,
1751406999.9822898,722.5661,727.87646,722.8316,563.52014,
1751406999.9861803,717.60974,726.4603,720.2649,397.0396,
1751406999.9900708,724.3362,732.21326,728.05347,683.6233,
1751406999.9939613,734.0719,735.0455,731.68225,1015.07965,
1751406999.9978518,742.126,729.7351,726.6374,958.17004,
1751407000.0017424,731.59375,724.95575,724.1592,618.12854,
1751407000.0056329,721.14996,727.78796,724.0707,399.5178,
1751407000.0095234,724.95575,728.14197,726.0178,626.4481,
1751407000.0134139,736.46155,729.6466,732.5673,987.9082,
1751407000.0173044,741.2409,730.3546,734.3374,993.04156,
1751407000.0211949,726.8144,729.20404,728.85004,664.7714,
1751407000.0250854,713.0074,730.3546,724.3362,399.6948,
1751407000.0289760,719.8224,729.8236,727.1684,571.04315,
1751407000.0328665,735.75354,729.11554,731.50525,954.01025,
1751407000.0367570,745.93176,728.76154,733.2753,1012.69,
1751407000.0406475,730.2661,729.38104,728.05347,706.54645,
1751407000.0445380,716.1051,724.3362,722.8316,414.12134,
1751407000.0484285,716.9017,725.9293,725.30975,527.85205,
1751407000.0523190,732.03625,733.8064,730.2661,913.2973,
1751407000.0562096,738.58575,731.0627,728.23047,1029.4177,
1751407000.0601001,726.9914,727.69946,722.47754,758.6767,
1751407000.0639906,714.06946,725.9293,721.504,433.2387,
1751407000.0678811,713.1844,729.5581,726.5489,485.19196,
1751407000.0717716,726.5489,734.86847,731.0627,869.48663,
1751407000.0756621,733.8064,731.4167,732.6558,1036.6752,
1751407000.0795527,730.8857,727.3454,733.9834,803.90344,
1751407000.0834432,718.05225,726.6374,727.87646,462.44583,
1751407000.0873337,708.228,723.6282,725.5753,451.117,
1751407000.0912242,722.5661,727.69946,732.30176,822.9323,
1751407000.0951147,739.11676,732.8328,733.1868,1039.8615,
1751407000.0990052,733.1868,728.67303,731.77075,851.43134,
1751407000.1028957,718.14075,728.67303,727.2569,502.00818,
1751407000.1067863,711.41425,728.496,725.04425,427.83984,
1751407000.1106768,721.94653,728.93854,729.6466,774.87335,
1751407000.1145673,736.28455,732.39026,736.5501,1038.4453,
1751407000.1184578,729.9121,729.7351,738.4972,898.4282,
1751407000.1223483,716.1051,726.5489,732.03625,546.9694,
1751407000.1262386,714.33496,728.496,729.5581,408.98798,
1751407000.1301291,721.5925,730.0891,730.2661,718.9373,
1751407000.1340196,735.84204,727.69946,730.7972,1025.6119,
1751407000.1379101,740.5329,724.77875,731.1512,929.49396,
1751407000.1418006,722.6546,724.2477,726.1948,580.4248,
1751407000.1456912,714.24646,726.8144,725.13275,406.06726,
1751407000.1495817,723.8937,726.3718,731.59375,676.3657,
1751407000.1534722,729.38104,723.0971,734.957,1003.75085,
1751407000.1573627,732.30176,727.87646,734.0719,962.8609,
1751407000.1612532,725.04425,734.69147,726.6374,631.4045,
1751407000.1651437,715.043,729.9121,722.8316,401.46494,
1751407000.1690342,721.14996,730.3546,731.1512,622.9079,
1751407000.1729248,738.67426,735.3995,737.7007,988.4392,
1751407000.1768153,739.29376,729.02704,731.77075,1000.83014,
1751407000.1807058,730.4431,722.8316,726.9914,689.9957,
1751407000.1845963,722.38904,725.04425,725.48676,415.97998,
1751407000.1884868,721.41547,730.6202,725.6638,566.0868,
1751407000.1923773,733.2753,731.94775,729.02704,944.8941,
1751407000.1962678,740.6214,728.05347,731.68225,1009.6808,
1751407000.2001584,731.59375,722.8316,728.05347,713.80396,
1751407000.2040489,715.6626,722.8316,722.21204,416.68802,
1751407000.2079394,712.5649,727.52246,723.8937,511.9209,
1751407000.2118299,730.8857,729.6466,732.12476,895.6846,
1751407000.2157204,740.17883,729.7351,733.0983,1023.3107,
1751407000.2196109,723.0086,726.3718,725.48676,762.8365,
1751407000.2235014,713.62695,724.2477,720.70746,437.133,
1751407000.2273920,717.2557,726.8144,723.5397,473.68613,
1751407000.2312825,728.14197,726.1063,730.6202,860.99005,
1751407000.2351730,742.303,729.38104,732.12476,1042.7821,
1751407000.2390635,741.5065,734.69147,726.1948,824.2599,
1751407000.2429540,717.60974,730.2661,725.9293,478.99652,
1751407000.2468445,704.42224,723.9822,729.7351,440.93878,
1751407000.2507350,725.39825,724.69025,731.85925,812.046,
1751407000.2546256,740.35583,724.86725,735.2225,1044.5522,
1751407000.2585161,727.0799,719.7339,732.8328,855.9452,
1751407000.2624066,709.82117,720.70746,726.4603,504.30936,
1751407000.2662971,706.4579,725.6638,725.30975,422.61795,
1751407000.2701876,719.8224,726.9914,730.3546,763.63306,
1751407000.2740781,738.76276,728.58453,732.30176,1034.2855,
1751407000.2779686,736.5501,725.7523,731.0627,903.56165,
1751407000.2818589,719.9109,722.30054,726.3718,551.8373,
1751407000.2857494,714.15796,724.60175,726.4603,406.15576,
1751407000.2896399,721.681,728.4075,729.11554,711.06024,
1751407000.2935305,734.60297,730.7087,733.2753,1018.97394,
1751407000.2974210,736.37305,730.8857,735.57654,938.3446,
1751407000.3013115,720.97296,727.3454,727.0799,589.36395,
1751407000.3052020,710.97174,726.0178,723.7167,389.60507,
1751407000.3090925,719.0258,723.8937,727.69946,654.06213,
1751407000.3129830,737.0811,723.8052,730.8857,1004.10486,
1751407000.3168736,738.85126,725.9293,731.0627,967.1092,
1751407000.3207641,721.14996,726.8144,726.7259,630.608,
1751407000.3246546,708.405,727.96497,719.0258,394.29593,
1751407000.3285451,720.53046,730.0891,722.03503,599.3652,
1751407000.3324356,733.9834,728.76154,732.03625,967.2862,
1751407000.3363261,734.957,726.8144,734.957,994.28064,
1751407000.3402166,725.22125,727.52246,729.02704,677.0738,
1751407000.3441072,709.2901,724.95575,721.85803,402.6155,
1751407000.3479977,711.5913,725.22125,724.69025,552.81085,
1751407000.3518882,728.14197,728.67303,731.94775,933.21124,
1751407000.3557787,732.39026,725.48676,731.3282,1008.26465,
1751407000.3596692,716.63617,719.1143,724.4247,709.90967,
1751407000.3635597,711.32574,719.9109,719.3798,414.47537,
1751407000.3674502,718.7603,726.2833,724.3362,520.59454,
1751407000.3713408,729.8236,729.29254,732.12476,904.8892,
1751407000.3752313,736.5501,726.2833,731.2397,1040.481,
1751407000.3791218,726.1063,726.3718,730.2661,785.93665,
1751407000.3830123,713.80396,729.02704,723.9822,446.07214,
1751407000.3869028,709.99817,728.76154,720.53046,472.71255,
1751407000.3907933,720.79596,728.76154,726.8144,851.5199,
1751407000.3946838,737.4351,732.5673,732.9213,1039.8615,
1751407000.3985744,729.9121,729.02704,726.4603,823.2863,
1751407000.4024649,709.55566,718.8488,716.1936,474.92523,
1751407000.4063554,704.24524,721.06146,720.0879,430.2295,
1751407000.4102459,720.0879,726.7259,727.1684,797.885,
1751407000.4141364,735.311,727.2569,728.14197,1042.1626,
1751407000.4180269,731.4167,728.4075,726.6374,867.71655,
1751407000.4219174,713.3614,727.52246,723.0971,512.0979,
1751407000.4258080,707.52,726.0178,719.9109,411.28915,
1751407000.4296985,721.14996,727.52246,726.2833,746.02026,
1751407000.4335890,733.7179,728.4075,729.9121,1032.5154,
1751407000.4374795,730.8857,726.9914,728.93854,908.7835,
1751407000.4413698,714.06946,725.48676,723.8052,549.00507,
1751407000.4452603,704.5108,726.4603,719.2913,396.7741,
1751407000.4491508,712.6534,725.30975,724.1592,693.27045,
1751407000.4530413,723.1856,722.8316,729.7351,1013.5751,
1751407000.4569318,730.2661,723.6282,730.9742,942.2389,
1751407000.4608223,723.6282,727.96497,726.1948,595.2054,
1751407000.4647129,713.62695,731.68225,720.88446,391.55222,
1751407000.4686034,714.9545,729.8236,723.2741,640.6092,
1751407000.4724939,729.8236,729.5581,729.38104,990.6519,
1751407000.4763844,734.60297,726.6374,726.8144,972.15405,
1751407000.4802749,717.96375,723.6282,721.94653,640.6092,
1751407000.4841654,708.6706,724.3362,724.95575,399.5178,
1751407000.4880559,714.866,723.0971,732.30176,594.2318,
1751407000.4919465,735.2225,726.1063,732.47876,968.17126,
1751407000.4958370,745.4007,732.03625,730.7972,1012.513,
1751407000.4997275,730.9742,731.68225,729.5581,699.73145,
1751407000.5036180,718.22925,729.02704,724.3362,408.45694,
1751407000.5075085,719.9109,728.319,726.0178,545.3763,
1751407000.5113990,733.6294,732.5673,733.0098,933.38824,
1751407000.5152895,738.2317,733.5409,733.0098,1022.07166,
1751407000.5191801,725.7523,731.2397,726.6374,740.8869,
1751407000.5230706,714.6005,724.3362,727.52246,431.20306,
1751407000.5269611,710.97174,726.2833,729.02704,506.4335,
1751407000.5308516,727.2569,733.8949,734.86847,895.419,
1751407000.5347421,741.6835,730.6202,737.6122,1044.6407,
1751407000.5386326,733.36383,728.05347,730.2661,798.5931,
1751407000.5425231,721.14996,728.4075,724.60175,458.90558,
1751407000.5464137,714.42346,727.87646,723.7167,462.62283,
1751407000.5503042,725.9293,729.6466,729.8236,845.76697,
1751407000.5541947,741.949,733.7179,734.957,1047.2075,
1751407000.5580852,737.4351,732.9213,730.0006,832.75653,
1751407000.5619757,718.5833,730.1776,724.2477,482.8023,
1751407000.5658662,712.9189,732.5673,727.52246,432.44217,
1751407000.5697567,727.78796,734.1604,731.50525,790.716,
1751407000.5736473,740.26733,734.2489,734.69147,1039.6844,
1751407000.5775378,736.19604,734.3374,737.7892,882.4971,
1751407000.5814283,714.42346,728.05347,731.59375,514.8416,
1751407000.5853188,696.27966,719.0258,725.6638,388.72,
1751407000.5892093,697.07623,722.12354,733.8064,712.4763,
1751407000.5930998,694.8636,723.3626,741.4179,988.1737,
1751407000.5969901,677.2508,716.0166,750.7111,863.82227,
1751407000.6008806,639.8126,710.61774,746.10876,482.35977,
1751407000.6047711,601.3123,706.72345,735.134,276.84796,
1751407000.6086617,584.85016,703.00616,745.84326,551.2177,
1751407000.6125522,589.36395,705.2188,757.6146,887.896,
1751407000.6164427,578.30066,702.91766,756.64105,816.5599,
1751407000.6203332,544.6683,695.3946,751.7732,443.41696,
1751407000.6242237,521.39105,693.9785,747.7019,197.63475,
1751407000.6281142,520.86005,695.0406,749.64905,432.44217,
1751407000.6320047,538.0303,694.9521,759.2962,805.5851,
1751407000.6358953,549.53613,698.6694,758.5882,810.2759,
1751407000.6397858,542.10156,698.9349,749.295,487.67014,
1751407000.6436763,533.4279,695.57166,745.2237,214.36244,
1751407000.6475668,546.34985,701.5016,749.91455,406.77533,
1751407000.6514573,564.49365,703.97974,753.2778,809.9219,
1751407000.6553478,578.47766,703.89124,746.99384,874.88556,
1751407000.6592383,585.20416,706.4579,741.949,575.29144,
1751407000.6631289,581.92944,706.98895,740.6214,274.54678,
1751407000.6670194,591.57666,708.5821,741.4179,402.88104,
1751407000.6709099,618.9251,712.1223,743.5421,815.05524,
1751407000.6748004,640.2551,714.33496,743.45355,940.9113,
1751407000.6786909,643.7069,715.8396,738.1432,669.6393,
1751407000.6825814,635.74133,710.88324,730.6202,342.78522,
1751407000.6864719,646.00806,710.3522,728.4075,415.62595,
1751407000.6903625,680.7911,720.97296,732.9213,836.20825,
1751407000.6942530,703.62573,727.4339,732.30176,1017.1153,
1751407000.6981435,703.97974,725.04425,726.9914,781.4228,
1751407000.7020340,705.7499,723.8937,723.7167,448.46182,
1751407000.7059245,714.33496,726.7259,721.14996,450.14343,
1751407000.7098150,734.86847,726.4603,724.0707,841.1646,
1751407000.7137055,759.0307,729.6466,727.4339,1072.8743,
1751407000.7175961,760.88934,728.58453,720.70746,880.3729,
1751407000.7214866,754.8709,730.5317,713.2729,528.02905,
1751407000.7253771,761.24335,736.6386,713.71545,462.26883,
1751407000.7292676,779.47565,736.6386,721.41547,823.5519,
1751407000.7331581,791.424,735.2225,724.1592,1094.4698,
1751407000.7370486,788.3263,735.3995,718.22925,946.0447,
1751407000.7409391,778.50214,730.6202,713.62695,587.0628,
1751407000.7448297,775.5814,732.03625,710.88324,463.4194,
1751407000.7487202,789.65393,740.7984,714.512,790.27344,
1751407000.7526104,809.0368,739.8248,721.23846,1099.2493,
1751407000.7565010,804.7,735.57654,720.53046,1002.2462,
1751407000.7603915,785.75964,733.0098,710.79474,642.2023,
1751407000.7642820,776.9975,732.6558,707.25446,445.80664,
1751407000.7681725,785.75964,735.84204,717.3442,729.20404,
1751407000.7720630,805.054,738.67426,721.681,1082.3445,
1751407000.7759535,807.00116,739.6478,719.1143,1037.4718,
1751407000.7798440,786.9987,735.84204,717.60974,684.68536,
1751407000.7837346,778.76764,733.0983,716.7247,444.30203,
1751407000.7876251,787.5298,735.75354,718.22925,679.19794,
1751407000.7915156,799.2126,738.0547,721.5925,1053.8455,
1751407000.7954061,803.54944,735.93054,719.2028,1059.8639,
1751407000.7992966,788.50336,733.1868,716.4591,727.52246,
1751407000.8031871,770.3595,732.12476,713.89246,449.16986,
1751407000.8070776,775.9354,733.6294,713.98096,624.50104,
1751407000.8109682,792.75165,737.3466,717.78674,1009.2382,
1751407000.8148587,797.708,739.6478,719.6454,1071.1927,
1751407000.8187492,787.1757,735.134,719.2028,770.0055,
1751407000.8226397,775.49286,734.957,717.1672,461.20673,
1751407000.8265302,774.1653,738.93976,719.9109,567.23737,
1751407000.8304207,788.76886,741.8605,725.7523,961.00226,
1751407000.8343112,797.7965,743.36505,723.0086,1082.256,
1751407000.8382018,784.6976,738.67426,717.69824,808.06323,
1751407000.8420923,767.52734,733.1868,713.4499,474.6597,
1751407000.8459828,767.52734,737.4351,714.7775,520.77155,
1751407000.8498733,778.2366,741.595,721.41547,914.0054,
1751407000.8537638,784.1665,736.28455,722.7431,1085.6193,
1751407000.8576543,778.1481,733.9834,718.40625,847.8026,
1751407000.8615448,762.6595,737.9662,717.1672,502.2737,
1751407000.8654354,756.72955,740.00183,717.78674,473.0666,
1751407000.8693259,765.8457,741.3294,720.3534,847.27155,
1751407000.8732164,776.8205,740.9754,726.6374,1081.6365,
1751407000.8771069,766.6423,735.84204,728.05347,882.58563,
1751407000.8809974,748.587,733.45233,721.06146,523.95776,
1751407000.8848879,743.6306,734.69147,718.9373,450.8515,
1751407000.8887784,753.01227,740.00183,726.8144,799.65515,
1751407000.8926690,767.70435,740.9754,730.4431,1070.8386,
1751407000.8965595,760.97784,738.1432,726.8144,922.679,
1751407000.9004500,740.00183,737.5237,721.14996,558.6523,
1751407000.9043405,736.46155,731.2397,718.6718,416.95355,
1751407000.9082310,748.0559,731.4167,723.9822,729.6466,
1751407000.9121213,759.9158,735.66504,728.93854,1048.0925,
1751407000.9160118,755.1364,734.60297,728.23047,962.06433,
1751407000.9199023,740.8869,730.0891,723.8937,602.90546,
1751407000.9237928,733.6294,729.7351,720.88446,399.96033,
1751407000.9276834,732.7443,731.1512,723.8052,671.8519,
1751407000.9315739,752.2157,731.77075,728.85004,1029.8602,
1751407000.9354644,757.8801,735.488,728.14197,990.9174,
1751407000.9393549,734.69147,732.9213,723.1856,646.8046,
1751407000.9432454,728.85004,725.39825,721.85803,404.12012,
1751407000.9471359,739.38226,727.96497,723.9822,612.6412,
1751407000.9510264,751.5962,732.7443,723.6282,991.537,
1751407000.9549170,758.32263,731.0627,730.0006,1017.2923,
1751407000.9588075,743.5421,728.76154,731.59375,689.46466,
1751407000.9626980,731.68225,733.8949,721.5925,408.72244,
1751407000.9665885,735.134,734.86847,722.03503,566.97186,
1751407000.9704790,746.37427,733.8064,732.5673,960.82526,
1751407000.9743695,753.80884,731.85925,731.94775,1038.0913,
1751407000.9782600,740.09033,728.58453,726.1063,738.2317,
1751407000.9821506,724.2477,727.87646,723.2741,427.13177,
1751407000.9860411,729.29254,731.0627,727.3454,524.31177,
1751407000.9899316,745.84326,733.0098,733.5409,920.2008,
1751407000.9938221,756.64105,731.94775,736.5501,1050.7477,
1751407000.9977126,745.0467,728.319,732.6558,784.3435,
1751407001.0016031,734.3374,725.48676,723.4511,453.15265,
1751407001.0054936,740.8869,726.6374,725.04425,495.2817,
1751407001.0093842,741.8605,727.52246,737.2581,876.21313,
1751407001.0132747,741.949,727.0799,741.5065,1059.8639,
1751407001.0171652,734.51447,726.6374,730.7972,834.9692,
1751407001.0210557,714.6005,724.69025,723.1856,472.00452,
1751407001.0249462,711.7683,727.61096,724.4247,438.5491,
1751407001.0288367,731.94775,732.03625,730.5317,815.8518,
1751407001.0327272,744.7812,730.7972,733.0983,1061.5455,
1751407001.0366178,733.9834,726.1063,729.20404,875.5051,
1751407001.0405083,721.32697,723.8937,724.4247,507.9381,
1751407001.0443988,721.504,723.0971,723.1856,423.0605,
1751407001.0482893,731.4167,728.4075,729.29254,776.2894,
1751407001.0521798,745.3122,732.30176,733.8949,1058.0052,
1751407001.0560703,744.4271,728.67303,728.496,920.5549,
1751407001.0599608,730.5317,724.2477,724.2477,561.8385,
1751407001.0638514,721.06146,724.51324,726.4603,408.45694,
1751407001.0677416,726.9029,730.1776,731.4167,717.1672,
1751407001.0716321,743.6306,733.0983,734.60297,1041.6316,
1751407001.0755227,748.4984,730.7087,732.5673,963.923,
1751407001.0794132,731.59375,725.5753,727.96497,607.15375,
1751407001.0833037,720.4419,725.48676,725.5753,402.08447,
1751407001.0871942,729.11554,731.0627,730.0006,662.5588,
1751407001.0910847,738.76276,731.3282,732.12476,1014.0176,
1751407001.0949752,737.7007,727.69946,731.50525,987.7312,
1751407001.0988657,726.2833,726.6374,728.496,644.1494,
1751407001.1027563,714.33496,725.8408,722.5661,393.05682,
1751407001.1066468,718.9373,728.67303,724.2477,607.41925,
1751407001.1105373,733.1868,730.0891,734.957,984.8105,
1751407001.1144278,735.488,727.2569,736.9926,1015.07965,
1751407001.1183183,729.38104,725.5753,726.7259,692.0314,
1751407001.1222088,719.7339,727.0799,720.97296,409.696,
1751407001.1260993,718.14075,729.5581,723.0086,557.5017,
1751407001.1299899,734.1604,730.4431,727.87646,942.3274,
1751407001.1338804,741.595,729.11554,729.02704,1026.32,
1751407001.1377709,730.8857,729.9121,726.8144,735.75354,
1751407001.1416614,720.2649,729.29254,723.2741,424.5651,
1751407001.1455519,719.2028,725.6638,724.0707,507.67258,
1751407001.1494424,732.47876,730.9742,727.3454,897.27765,
1751407001.1533329,744.6927,735.57654,725.6638,1040.9235,
1751407001.1572235,731.85925,730.9742,722.6546,785.67114,
1751407001.1611140,713.2729,727.87646,720.70746,438.90314,
1751407001.1650045,717.4327,731.4167,720.88446,459.4366,
1751407001.1688950,733.0983,733.1868,727.78796,851.34283,
1751407001.1727855,740.7099,728.85004,729.8236,1047.65,
1751407001.1766760,730.1776,726.8144,726.1948,829.6588,
1751407001.1805665,719.8224,725.5753,721.23846,474.3057,
1751407001.1844571,716.0166,723.6282,719.9994,427.3973,
1751407001.1883476,724.4247,726.0178,728.319,798.6816,
1751407001.1922381,741.5065,730.2661,733.0098,1049.8627,
1751407001.1961286,738.2317,731.94775,728.67303,873.2039,
1751407001.2000191,721.94653,728.319,722.03503,506.96454,
1751407001.2039096,713.3614,725.22125,718.49475,404.29715,
1751407001.2078001,726.3718,732.5673,724.4247,748.6755,
1751407001.2116907,744.5157,734.1604,730.7972,1036.5867,
1751407001.2155812,737.7892,725.30975,728.14197,910.3766,
1751407001.2194717,719.2913,723.4511,718.49475,553.6959,
1751407001.2233620,716.8132,729.11554,718.14075,395.2695,
1751407001.2272525,729.02704,732.30176,731.1512,694.9521,
1751407001.2311430,743.18805,731.1512,740.00183,1028.8866,
1751407001.2350335,747.08234,733.7179,739.6478,956.3999,
1751407001.2389240,733.8064,734.77997,728.23047,603.25946,
1751407001.2428145,736.6386,731.2397,721.76953,408.27994,
1751407001.2467051,740.6214,733.8949,729.7351,659.1955,
1751407001.2505956,737.8777,735.0455,734.77997,1003.3083,
1751407001.2544861,741.949,731.3282,732.5673,983.5714,
1751407001.2583766,725.9293,728.05347,725.13275,643.35284,
1751407001.2622671,710.1752,723.4511,718.14075,388.18896,
1751407001.2661576,718.8488,724.1592,719.0258,589.45245,
1751407001.2700481,734.51447,725.30975,724.2477,968.17126,
1751407001.2739387,735.66504,724.2477,727.0799,1005.521,
1751407001.2778292,725.48676,723.1856,722.12354,695.92566,
1751407001.2817197,715.7511,724.0707,717.78674,408.89948,
1751407001.2856102,717.69824,723.0086,719.0258,543.07513,
1751407001.2895007,735.2225,724.2477,719.9994,935.60095,
1751407001.2933912,738.2317,726.5489,720.88446,1028.3556,
1751407001.2972817,723.8937,721.681,717.87524,738.4087,
1751407001.3011723,714.9545,720.88446,713.2729,421.20184,
1751407001.3050628,714.15796,720.79596,718.05225,494.92767,
1751407001.3089533,725.48676,720.0879,724.69025,887.9845,
1751407001.3128438,740.5329,724.4247,726.7259,1040.481,
1751407001.3167343,729.11554,725.13275,721.681,790.09644,
1751407001.3206248,713.80396,720.88446,716.2821,442.6204,
1751407001.3245153,716.3706,719.5569,716.3706,450.58597,
1751407001.3284059,725.8408,721.14996,720.88446,843.5543,
1751407001.3322964,733.7179,722.9201,726.4603,1050.4822,
1751407001.3361869,728.67303,721.06146,723.4511,836.7393,
1751407001.3400774,713.3614,720.4419,718.05225,480.50113,
1751407001.3439679,705.3073,720.70746,720.0879,428.45938,
1751407001.3478584,718.8488,720.4419,726.1948,797.17694,
1751407001.3517489,735.0455,722.12354,728.67303,1046.3224,
1751407001.3556395,731.4167,721.41547,725.9293,879.48785,
1751407001.3595300,715.48553,718.22925,722.21204,529.0026,
1751407001.3634205,710.61774,716.8132,721.14996,413.5018,
1751407001.3673110,720.88446,719.8224,722.12354,740.17883,
1751407001.3712015,732.39026,724.1592,722.5661,1039.065,
1751407001.3750920,733.6294,724.1592,724.86725,931.2641,
1751407001.3789825,726.7259,725.13275,724.2477,572.0167,
1751407001.3828728,721.06146,724.4247,720.4419,394.91547,
1751407001.3867633,721.14996,720.3534,722.03503,691.76587,
1751407001.3906538,734.1604,723.7167,727.1684,1028.9751,
1751407001.3945444,743.01105,725.6638,728.05347,962.15283,
1751407001.3984349,725.8408,725.13275,725.48676,613.0837,
1751407001.4023254,712.1223,722.6546,721.76953,393.23383,
1751407001.4062159,720.0879,719.5569,724.69025,637.0689,
1751407001.4101064,734.957,721.23846,731.85925,999.85657,
1751407001.4139969,740.17883,725.30975,732.21326,992.1565,
1751407001.4178874,729.7351,725.5753,725.7523,659.90356,
1751407001.4217780,717.4327,723.2741,719.6454,403.23505,
1751407001.4256685,719.2913,726.4603,722.12354,588.2134,
1751407001.4295590,730.0891,726.9029,729.8236,965.33905,
1751407001.4334495,727.3454,725.7523,733.0098,1012.24744,
1751407001.4373400,715.043,728.67303,726.5489,698.4923,
1751407001.4412305,710.52924,728.85004,721.32697,407.8374,
1751407001.4451210,714.42346,728.319,723.0086,535.5521,
1751407001.4490116,724.95575,727.61096,727.0799,921.4399,
1751407001.4529021,739.20526,728.496,732.30176,1029.3292,
1751407001.4567926,734.1604,731.94775,728.93854,759.2962,
1751407001.4606831,716.3706,730.2661,721.41547,431.4686,
1751407001.4645736,712.8304,726.8144,719.0258,480.50113,
1751407001.4684641,730.0891,732.39026,727.4339,874.62006,
1751407001.4723547,743.8076,733.8949,726.5489,1040.127,
1751407001.4762452,730.8857,729.7351,720.0879,796.20337,
1751407001.4801357,709.4671,729.8236,720.4419,449.2584,
1751407001.4840262,705.0418,731.0627,720.79596,444.39053,
1751407001.4879167,720.0879,729.5581,721.23846,828.68524,
1751407001.4918072,732.7443,728.496,724.77875,1045.8799,
1751407001.4956977,729.46954,725.7523,726.2833,845.2359,
1751407001.4995883,716.0166,723.6282,722.47754,486.60806,
1751407001.5034788,707.9625,730.0006,721.85803,421.02484,
1751407001.5073693,718.31775,730.7972,724.69025,779.38715,
1751407001.5112598,734.0719,732.9213,725.5753,1036.6752,
1751407001.5151503,731.94775,732.9213,726.6374,883.8247,
1751407001.5190408,715.043,726.2833,722.38904,530.68427,
1751407001.5229313,709.0246,728.319,719.8224,403.7661,
1751407001.5268219,726.7259,731.68225,725.22125,727.0799,
1751407001.5307124,744.4271,730.9742,727.0799,1036.3212,
1751407001.5346029,740.8869,731.3282,724.0707,929.848,
1751407001.5384932,724.51324,728.05347,719.2913,571.30865,
1751407001.5423837,711.9453,727.69946,717.2557,393.23383,
1751407001.5462742,720.97296,730.0891,726.1063,674.86115,
1751407001.5501647,734.60297,728.67303,731.94775,1011.6279,
1751407001.5540552,734.69147,726.5489,728.496,958.34705,
1751407001.5579457,723.4511,724.0707,724.1592,612.6412,
1751407001.5618362,711.8568,725.30975,721.14996,384.11768,
1751407001.5657268,711.6798,724.77875,721.23846,618.04004,
1751407001.5696173,730.6202,724.51324,728.23047,991.2714,
1751407001.5735078,737.3466,725.8408,730.8857,993.30707,
1751407001.5773983,721.76953,725.7523,721.504,666.3645,
1751407001.5812888,714.24646,726.1063,716.2821,402.08447,
1751407001.5851793,719.6454,728.4075,722.47754,572.7248,
1751407001.5890698,732.47876,729.9121,730.7087,957.72754,
1751407001.5929604,740.00183,728.23047,732.8328,1018.00037,
1751407001.5968509,727.2569,724.51324,730.0891,714.6005,
1751407001.6007414,718.40625,724.51324,725.6638,414.29837,
1751407001.6046319,722.9201,729.6466,724.4247,525.37384,
1751407001.6085224,732.39026,733.36383,727.78796,917.3686,
1751407001.6124129,738.85126,730.0006,729.9121,1035.3477,
1751407001.6163034,730.3546,725.22125,727.87646,762.3054,
1751407001.6201940,721.85803,729.46954,720.97296,435.98242,
1751407001.6240845,725.30975,731.68225,720.88446,478.6425,
1751407001.6279750,740.5329,732.5673,730.3546,870.8143,
1751407001.6318655,748.1444,733.1868,731.3282,1048.9775,
1751407001.6357560,735.75354,730.7972,726.1063,811.692,
1751407001.6396465,721.76953,729.38104,728.05347,462.71133,
1751407001.6435370,721.06146,723.9822,728.76154,449.08136,
1751407001.6474276,734.51447,725.48676,730.3546,828.59674,
1751407001.6513181,740.7099,728.4075,732.39026,1049.9512,
1751407001.6552086,732.6558,727.4339,726.2833,856.2107,
1751407001.6590991,721.85803,729.5581,719.6454,501.1231,
1751407001.6629896,715.043,731.2397,723.0086,419.87427,
1751407001.6668801,727.3454,729.7351,729.46954,767.2618,
1751407001.6707706,745.4892,729.46954,729.9121,1041.0121,
1751407001.6746612,739.29376,729.38104,727.61096,899.1363,
1751407001.6785517,724.4247,727.1684,723.5397,539.5349,
1751407001.6824422,718.49475,727.96497,722.6546,405.62473,
1751407001.6863327,726.0178,729.11554,724.0707,716.1936,
1751407001.6902232,738.3202,731.68225,726.6374,1026.2314,
1751407001.6941135,738.93976,732.5673,728.93854,932.4147,
1751407001.6980040,725.6638,729.8236,726.6374,579.9823,
1751407001.7018945,719.2028,731.77075,724.0707,397.2166,
1751407001.7057850,728.4075,736.37305,727.61096,665.8335,
1751407001.7096756,736.9926,730.8857,734.51447,1010.4773,
1751407001.7135661,736.5501,719.9109,730.2661,973.0391,
1751407001.7174566,729.9121,725.04425,724.69025,633.7057,
1751407001.7213471,722.30054,733.6294,723.8937,397.0396,
1751407001.7252376,727.0799,732.21326,726.9029,617.15497,
1751407001.7291281,741.8605,731.77075,732.12476,982.86334,
1751407001.7330186,743.7191,732.47876,735.488,991.9795,
1751407001.7369092,730.7972,729.20404,729.38104,672.737,
1751407001.7407997,726.5489,727.3454,722.8316,405.97876,
1751407001.7446902,724.60175,727.61096,727.61096,568.565,
1751407001.7485807,736.37305,726.7259,731.59375,956.4884,
1751407001.7524712,741.772,726.5489,731.0627,1027.5591,
1751407001.7563617,724.0707,729.8236,727.1684,727.61096,
1751407001.7602522,712.5649,732.03625,724.0707,418.63516,
1751407001.7641428,718.14075,733.0983,724.4247,522.2761,
1751407001.7680333,731.0627,731.77075,726.6374,908.872,
1751407001.7719238,735.3995,733.1868,732.30176,1034.1085,
1751407001.7758143,727.0799,729.9121,731.77075,771.95264,
1751407001.7797048,715.9281,724.60175,723.8052,434.74332,
1751407001.7835953,711.41425,728.76154,720.79596,475.54477,
1751407001.7874858,727.61096,734.3374,727.2569,870.54877,
1751407001.7913764,737.2581,737.3466,731.4167,1045.7914,
1751407001.7952669,724.86725,733.45233,728.496,817.4449,
1751407001.7991574,717.4327,726.9914,720.4419,470.05737,
1751407001.8030479,713.98096,725.04425,721.85803,441.20428,
1751407001.8069384,720.53046,727.2569,731.1512,810.62994,
1751407001.8108289,732.03625,726.9029,736.46155,1043.1362,
1751407001.8147194,724.86725,724.1592,735.2225,857.09576,
1751407001.8186100,710.4407,723.6282,728.496,496.87482,
1751407001.8225005,709.99817,723.9822,723.3626,411.55466,
1751407001.8263910,720.79596,730.4431,725.8408,763.102,
1751407001.8302815,728.23047,734.4259,731.4167,1039.8615,
1751407001.8341720,727.61096,730.8857,731.4167,897.7202,
1751407001.8380625,716.7247,729.20404,727.61096,542.98663,
1751407001.8419530,711.5028,730.7972,726.1063,400.31436,
1751407001.8458436,716.7247,732.30176,730.1776,707.43146,
1751407001.8497338,733.9834,731.50525,735.2225,1022.6912,
1751407001.8536243,738.67426,729.9121,730.9742,936.22046,
1751407001.8575149,721.504,731.50525,724.77875,582.19495,
1751407001.8614054,709.90967,732.03625,725.7523,388.10046,
1751407001.8652959,720.97296,731.85925,731.0627,658.2219,
1751407001.8691864,741.5065,735.311,734.77997,1008.44165,
1751407001.8730769,743.5421,735.3995,735.134,974.89777,
1751407001.8769674,724.77875,732.7443,729.46954,634.2367,
1751407001.8808579,710.1752,729.8236,724.0707,393.7649,
1751407001.8847485,714.33496,727.87646,725.6638,600.42725,
1751407001.8886390,731.3282,728.4075,729.38104,968.87933,
1751407001.8925295,739.11676,728.496,733.0098,995.0772,
1751407001.8964200,725.30975,728.05347,730.6202,680.5256,
1751407001.9003105,709.82117,721.85803,722.5661,398.10168,
1751407001.9042010,714.9545,723.5397,719.2913,550.42114,
1751407001.9080915,728.4075,732.9213,726.7259,943.47797,
1751407001.9119821,740.09033,731.59375,729.6466,1020.9211,
1751407001.9158726,736.7271,731.0627,722.03503,726.1063,
1751407001.9197631,715.13153,730.6202,720.4419,418.45816,
1751407001.9236536,711.6798,725.7523,723.6282,507.7611,
1751407001.9275441,730.3546,726.9029,729.38104,899.3133,
1751407001.9314346,737.1696,729.7351,733.45233,1031.6304,
1751407001.9353251,724.2477,729.20404,729.5581,772.12964,
1751407001.9392157,715.39703,724.0707,724.86725,443.68246,
1751407001.9431062,713.0959,725.22125,725.30975,473.50912,
1751407001.9469967,719.8224,730.0891,727.4339,851.25433,
1751407001.9508872,738.1432,733.0098,731.1512,1041.2776,
1751407001.9547777,733.36383,731.68225,729.20404,832.13696,
1751407001.9586682,712.7419,726.1063,726.0178,480.50113,
1751407001.9625587,708.3165,724.51324,726.2833,436.8675,
1751407001.9664493,726.1063,729.46954,732.21326,806.2046,
1751407001.9703398,736.9926,729.6466,734.0719,1044.8177,
1751407001.9742303,727.1684,724.95575,729.29254,867.3625,
1751407001.9781208,717.69824,723.9822,726.3718,512.54047,
1751407001.9820113,714.512,725.7523,724.0707,416.68802,
1751407001.9859018,726.1063,727.96497,727.1684,753.54333,
1751407001.9897923,739.20526,730.6202,733.5409,1032.9579,
1751407001.9936829,731.77075,732.30176,731.2397,912.41223,
1751407001.9975734,714.9545,730.4431,725.39825,554.758,
1751407002.0014639,708.7591,726.4603,722.7431,397.39365,
1751407002.0053544,721.681,727.0799,728.4075,706.81195,
1751407002.0092447,739.11676,728.496,735.134,1025.5234,
1751407002.0131352,738.67426,728.23047,734.957,947.19525,
1751407002.0170257,719.9994,725.13275,729.8236,597.3295,
1751407002.0209162,707.6085,724.1592,725.6638,392.26028,
1751407002.0248067,715.6626,731.59375,726.5489,648.2207,
1751407002.0286973,735.311,735.75354,730.7087,997.9979,
1751407002.0325878,735.93054,733.0098,731.50525,972.6851,
1751407002.0364783,719.9109,729.02704,727.52246,638.308,
1751407002.0403688,711.14874,725.7523,724.1592,392.6143,
1751407002.0442593,716.1936,727.2569,727.52246,593.7893,
1751407002.0481498,733.5409,728.05347,736.6386,969.23334,
1751407002.0520403,737.7007,728.05347,738.3202,1001.5382,
1751407002.0559309,720.79596,728.14197,730.8857,683.2692,
1751407002.0598214,709.55566,725.04425,724.60175,400.04883,
1751407002.0637119,710.61774,726.3718,724.60175,543.16364,
1751407002.0676024,723.8052,729.02704,731.59375,929.31696,
1751407002.0714929,736.28455,729.20404,740.00183,1023.3107,
1751407002.0753834,724.69025,720.2649,736.10754,740.8869,
1751407002.0792739,710.70624,716.9017,724.51324,427.04327,
1751407002.0831645,714.689,726.8144,725.04425,505.37143,
1751407002.0870550,728.58453,726.1063,730.7972,894.44543,
1751407002.0909455,738.67426,728.496,731.1512,1042.5166,
1751407002.0948360,730.5317,730.0891,728.76154,785.4941,
1751407002.0987265,714.15796,724.77875,721.85803,449.96643,
1751407002.1026170,713.53845,726.8144,719.8224,468.72977,
1751407002.1065075,730.4431,731.59375,724.77875,848.3336,
1751407002.1103981,739.6478,730.7972,728.93854,1042.8706,
1751407002.1142886,732.7443,729.20404,729.7351,834.7922,
1751407002.1181791,717.4327,725.7523,725.7523,488.2897,
1751407002.1220696,709.0246,724.4247,722.03503,433.94678,
1751407002.1259601,724.60175,726.8144,725.39825,795.93787,
1751407002.1298506,737.2581,731.50525,727.3454,1044.9948,
1751407002.1337411,730.7972,729.38104,725.39825,876.7442,
1751407002.1376317,719.6454,723.2741,722.9201,519.5325,
1751407002.1415222,713.0959,726.1063,721.41547,410.6696,
1751407002.1454127,723.2741,733.36383,724.86725,745.75476,
1751407002.1493032,742.3915,732.8328,729.9121,1036.1442,
1751407002.1531937,740.6214,730.3546,727.3454,911.43866,
1751407002.1570842,723.3626,729.20404,720.88446,555.55457,
1751407002.1609747,713.0074,724.86725,723.9822,396.7741,
1751407002.1648650,717.78674,726.7259,727.61096,697.25323,
1751407002.1687555,735.93054,731.2397,729.7351,1024.1073,
1751407002.1726460,745.0467,730.7972,730.2661,951.00104,
1751407002.1765366,732.9213,728.4075,722.6546,607.6848,
1751407002.1804271,719.6454,720.79596,718.49475,394.64993,
1751407002.1843176,723.3626,721.41547,725.04425,639.45856,
1751407002.1882081,739.6478,727.96497,729.11554,996.3163,
1751407002.1920986,741.0639,728.496,728.496,981.1817,
1751407002.1959891,724.0707,725.48676,722.5661,650.6104,
1751407002.1998796,713.53845,723.7167,716.3706,393.49936,
1751407002.2037702,725.13275,729.20404,719.3798,587.0628,
1751407002.2076607,742.303,734.4259,729.20404,966.4896,
1751407002.2115512,743.45355,732.21326,731.3282,1008.7072,
1751407002.2154417,729.29254,726.1063,723.9822,697.9613,
1751407002.2193322,717.52124,726.7259,725.8408,413.5903,
1751407002.2232227,722.6546,729.46954,728.85004,547.2349,
1751407002.2271132,735.75354,730.5317,730.1776,925.59973,
1751407002.2310038,741.949,729.6466,734.3374,1026.0544,
1751407002.2348943,733.2753,726.9914,730.5317,752.74677,
1751407002.2387848,718.5833,726.1063,723.6282,428.10535,
1751407002.2426753,718.05225,729.5581,721.23846,496.87482,
1751407002.2465658,734.86847,734.0719,728.23047,891.2592,
1751407002.2504563,744.6042,730.6202,731.3282,1039.596,
1751407002.2543468,732.12476,730.0891,724.77875,789.91943,
1751407002.2582374,719.8224,729.02704,719.3798,451.2055,
1751407002.2621279,721.14996,724.69025,722.7431,462.0918,
1751407002.2660184,732.30176,730.1776,728.58453,840.27954,
1751407002.2699089,742.126,731.2397,729.02704,1044.1097,
1751407002.2737994,737.7892,729.11554,727.96497,843.9968,
1751407002.2776899,721.5925,730.3546,728.58453,492.00696,
1751407002.2815804,716.9017,728.58453,728.76154,436.51346,
1751407002.2854710,727.96497,728.05347,730.5317,793.01715,
1751407002.2893615,733.8949,730.7972,733.6294,1044.1982,
1751407002.2932520,734.1604,730.7087,732.39026,885.4178,
1751407002.2971425,724.77875,724.69025,724.60175,525.9049,
1751407002.3010330,716.0166,723.4511,721.94653,410.93512,
1751407002.3049235,725.6638,727.0799,728.05347,734.3374,
1751407002.3088140,743.09955,728.319,733.6294,1029.5062,
1751407002.3127046,740.5329,728.05347,735.0455,921.3514,
1751407002.3165951,724.69025,726.8144,728.4075,566.97186,
1751407002.3204854,719.1143,723.6282,721.504,399.96033,
1751407002.3243759,728.319,729.46954,728.93854,687.252,
1751407002.3282664,737.6122,735.66504,731.94775,1019.505,
1751407002.3321569,734.86847,729.29254,730.0006,960.3827,
1751407002.3360474,721.32697,724.0707,728.14197,617.50903,
1751407002.3399379,713.53845,726.4603,726.7259,398.10168,
1751407002.3438284,721.32697,725.6638,731.94775,634.4137,
1751407002.3477190,729.11554,726.1063,736.01904,995.3427,
1751407002.3516095,729.46954,729.8236,734.51447,981.8013,
1751407002.3555000,722.47754,729.11554,728.67303,656.3633,
1751407002.3593905,710.79474,726.4603,723.1856,403.05804,
1751407002.3632810,711.7683,729.8236,725.6638,588.4789,
1751407002.3671715,732.30176,729.46954,730.8857,964.80804,
1751407002.3710620,738.76276,724.77875,732.7443,1012.42444,
1751407002.3749526,724.86725,723.4511,732.6558,707.25446,
1751407002.3788431,714.7775,723.0971,729.02704,412.70523,
1751407002.3827336,714.9545,724.86725,728.319,533.8705,
1751407002.3866241,723.7167,731.1512,733.0098,919.6698,
1751407002.3905146,734.0719,734.3374,731.77075,1031.6304,
1751407002.3944051,729.8236,730.7972,725.8408,756.90656,
1751407002.3982956,713.80396,725.8408,721.06146,427.22028,
1751407002.4021862,713.89246,725.04425,722.47754,494.0426,
1751407002.4060767,727.2569,725.30975,728.4075,884.0017,
1751407002.4099672,736.37305,725.04425,730.8857,1038.7108,
1751407002.4138577,726.6374,724.69025,727.87646,796.20337,
1751407002.4177482,712.3878,726.4603,723.7167,456.07336,
1751407002.4216387,714.6005,726.6374,724.51324,454.48026,
1751407002.4255292,723.8937,727.0799,726.0178,833.6416,
1751407002.4294198,734.69147,728.76154,726.4603,1040.9235,
1751407002.4333103,728.05347,730.7087,728.58453,835.50024,
1751407002.4372008,715.13153,727.96497,727.69946,485.369,
1751407002.4410913,716.3706,726.5489,725.30975,425.8927,
1751407002.4449818,727.2569,727.3454,729.38104,780.2722,
1751407002.4488723,738.4972,730.5317,733.0098,1040.9235,
1751407002.4527628,734.51447,729.38104,729.6466,886.12585,
1751407002.4566534,723.0971,726.5489,723.0086,528.6486,
1751407002.4605439,719.4683,727.3454,722.5661,409.07648,
1751407002.4644344,726.5489,730.0891,728.4075,730.6202,
1751407002.4683249,742.2145,737.8777,730.3546,1030.3912,
1751407002.4722154,742.303,736.10754,726.6374,925.42267,
1751407002.4761059,724.0707,728.67303,722.5661,572.4592,
1751407002.4799962,716.2821,730.7972,723.0086,396.06604,
1751407002.4838867,725.13275,733.6294,726.2833,674.68414,
1751407002.4877772,740.6214,733.5409,728.496,1009.5038,
1751407002.4916677,739.38226,732.39026,725.48676,957.63904,
1751407002.4955583,727.4339,727.4339,725.13275,617.24347,
1751407002.4994488,721.504,723.7167,721.41547,392.26028,
1751407002.5033393,721.504,726.5489,721.76953,619.2791,
1751407002.5072298,736.9926,730.6202,732.8328,982.1553,
1751407002.5111203,741.5065,732.03625,736.37305,990.8289,
1751407002.5150108,728.14197,729.29254,730.2661,666.276,
1751407002.5189013,719.5569,726.5489,725.22125,402.17297,
1751407002.5227919,727.69946,731.50525,729.11554,577.3271,
1751407002.5266824,741.3294,734.3374,736.9041,949.3194,
1751407002.5305729,746.46277,731.94775,735.57654,1012.867,
1751407002.5344634,737.0811,730.0006,725.8408,719.6454,
1751407002.5383539,722.8316,727.52246,721.23846,415.71445,
1751407002.5422444,725.13275,730.7087,721.504,530.77277,
1751407002.5461349,736.5501,734.0719,727.61096,922.679,
1751407002.5500255,742.2145,732.30176,733.8949,1033.843,
1751407002.5539160,734.77997,731.3282,730.3546,760.97784,
1751407002.5578065,720.61896,731.50525,721.76953,435.80542,
1751407002.5616970,715.8396,729.29254,719.4683,484.30692,
1751407002.5655875,734.2489,728.23047,728.14197,872.49585,
1751407002.5694780,747.5249,726.5489,729.20404,1044.1982,
1751407002.5733685,735.134,724.60175,725.30975,810.3644,
1751407002.5772591,717.96375,722.38904,722.8316,469.79187,
1751407002.5811496,715.9281,725.9293,726.5489,450.05493,
1751407002.5850401,730.0891,731.1512,731.4167,824.87946,
1751407002.5889306,744.6042,734.1604,730.2661,1041.2776,
1751407002.5928211,736.01904,733.7179,728.319,843.9968,
1751407002.5967116,718.40625,729.9121,723.9822,500.8576,
1751407002.6006021,717.78674,727.4339,721.76953,425.8927,
1751407002.6044927,724.4247,728.58453,727.52246,773.0147,
1751407002.6083832,738.3202,728.58453,727.69946,1041.4546,
1751407002.6122737,739.29376,724.3362,725.48676,897.8087,
1751407002.6161642,720.3534,723.8052,723.8052,543.7832,
1751407002.6200547,710.4407,726.5489,722.21204,408.98798,
1751407002.6239452,721.681,731.1512,725.13275,720.97296,
1751407002.6278358,734.86847,729.8236,730.7087,1027.2936,
1751407002.6317263,731.4167,727.4339,730.9742,931.2641,
1751407002.6356165,714.06946,728.4075,723.0971,579.27423,
1751407002.6395071,710.97174,728.14197,720.61896,396.42007,
1751407002.6433976,716.8132,731.59375,726.1063,672.29443,
1751407002.6472881,726.6374,731.0627,732.7443,1011.18536,
1751407002.6511786,733.1868,726.9914,732.8328,966.4896,
1751407002.6550691,720.88446,725.7523,728.14197,632.46655,
1751407002.6589596,707.6085,722.21204,724.0707,401.99597,
1751407002.6628501,715.7511,725.04425,725.5753,620.87225,
1751407002.6667407,732.8328,733.2753,730.9742,980.29663,
1751407002.6706312,736.7271,736.10754,730.0891,991.4484,
1751407002.6745217,722.9201,733.6294,724.69025,674.94965,
1751407002.6784122,707.697,730.4431,719.6454,402.35,
1751407002.6823027,708.4935,729.11554,726.6374,569.3615,
1751407002.6861932,725.39825,728.319,733.5409,946.3102,
1751407002.6900837,730.4431,729.02704,732.39026,1011.5394,
1751407002.6939743,717.1672,725.5753,730.7972,717.0787,
1751407002.6978648,709.2901,722.7431,725.48676,415.62595,
1751407002.7017553,710.0867,729.9121,726.6374,517.05426,
1751407002.7056458,721.94653,736.9926,733.0983,906.3938,
1751407002.7095363,731.3282,728.93854,732.30176,1030.3912,
1751407002.7134268,723.9822,722.9201,724.51324,762.6595,
1751407002.7173173,711.41425,730.6202,717.96375,435.36288,
1751407002.7212079,711.32574,729.02704,721.85803,479.7931,
1751407002.7250984,718.5833,725.5753,728.14197,862.5832,
1751407002.7289889,731.77075,730.5317,731.85925,1040.0385,
1751407002.7328794,729.8236,728.496,731.2397,811.9575,
1751407002.7367699,711.8568,721.06146,723.3626,463.15387,
1751407002.7406604,704.24524,727.0799,721.32697,442.97443,
1751407002.7445509,719.6454,733.8949,725.04425,817.0909,
1751407002.7484415,737.9662,733.2753,726.1948,1046.6764,
1751407002.7523320,730.5317,730.8857,722.5661,856.83026,
1751407002.7562225,715.043,727.78796,720.2649,504.48636,
1751407002.7601130,715.30853,730.5317,724.86725,428.28238,
1751407002.7640035,724.60175,731.59375,727.52246,768.41235,
1751407002.7678940,737.7892,731.1512,726.0178,1034.2855,
1751407002.7717845,735.84204,730.7972,730.5317,897.9857,
1751407002.7756751,720.53046,729.20404,730.7087,548.91656,
1751407002.7795656,715.48553,732.12476,725.30975,409.4305,
1751407002.7834561,727.1684,734.69147,729.29254,719.4683,
1751407002.7873466,741.0639,732.8328,732.9213,1027.2936,
1751407002.7912369,737.6122,732.30176,730.1776,932.06067,
1751407002.7951274,725.5753,730.9742,726.1063,582.8145,
1751407002.7990179,721.85803,731.1512,722.30054,392.3488,
1751407002.8029084,726.9029,732.7443,727.78796,660.34607,
1751407002.8067989,738.67426,731.59375,730.1776,1004.9014,
1751407002.8106894,740.26733,727.61096,728.58453,969.05634,
1751407002.8145800,725.30975,724.60175,725.48676,633.7942,
1751407002.8184705,713.1844,727.78796,719.9109,393.9419,
1751407002.8223610,722.21204,732.39026,720.61896,605.6492,
1751407002.8262515,739.20526,732.12476,727.61096,978.084,
1751407002.8301420,740.9754,730.9742,728.76154,996.1393,
1751407002.8340325,724.86725,726.8144,724.95575,676.7198,
1751407002.8379230,713.2729,726.7259,722.5661,402.2615,
1751407002.8418136,719.1143,730.6202,722.21204,559.2718,
1751407002.8457041,731.94775,733.7179,728.496,942.4159,
1751407002.8495946,741.8605,729.29254,730.7087,1023.6648,
1751407002.8534851,732.47876,724.95575,725.39825,731.2397,
1751407002.8573756,716.9017,729.02704,720.70746,416.68802,
1751407002.8612661,718.31775,732.7443,724.86725,516.1692,
1751407002.8651567,731.4167,733.2753,731.77075,905.5973,
1751407002.8690472,740.00183,730.7087,733.45233,1036.1442,
1751407002.8729377,728.05347,728.4075,726.1948,777.97107,
1751407002.8768282,716.1051,726.9029,718.40625,441.46982,
1751407002.8807187,716.0166,727.61096,723.1856,479.70456,
1751407002.8846092,728.23047,731.0627,731.59375,862.1406,
1751407002.8884997,740.7099,730.8857,728.76154,1042.6936,
1751407002.8923903,731.59375,729.02704,725.8408,820.3656,
1751407002.8962808,719.5569,725.6638,727.52246,475.19073,
1751407002.9001713,715.39703,726.5489,727.3454,446.33768,
1751407002.9040618,721.681,734.4259,728.85004,810.3644,
1751407002.9079523,736.10754,735.84204,728.67303,1040.9235,
1751407002.9118428,733.36383,730.0006,725.5753,865.41534,
1751407002.9157333,719.8224,727.61096,721.41547,515.8152,
1751407002.9196239,714.7775,725.6638,720.97296,417.6616,
1751407002.9235144,722.7431,726.1948,726.9029,753.4548,
1751407002.9274049,731.4167,727.52246,731.0627,1028.6211,
1751407002.9312954,730.7087,726.4603,729.5581,897.7202,
1751407002.9351859,719.0258,723.4511,724.3362,546.34985,
1751407002.9390764,706.4579,720.61896,724.0707,400.31436,
1751407002.9429669,715.5741,722.6546,726.2833,703.00616,
1751407002.9468575,736.46155,729.11554,729.8236,1020.213,
1751407002.9507477,732.5673,727.2569,727.61096,940.8228,
1751407002.9546382,713.62695,720.53046,721.76953,589.36395,
1751407002.9585288,709.2901,719.4683,722.12354,390.40164,
1751407002.9624193,721.32697,727.0799,728.496,652.2035,
1751407002.9663098,737.0811,731.68225,736.46155,1002.6003,
1751407002.9702003,737.5237,726.6374,736.9926,977.2874,
1751407002.9740908,724.1592,725.30975,729.38104,639.6356,
1751407002.9779813,713.0074,723.9822,724.60175,395.6235,
1751407002.9818718,721.681,722.03503,730.4431,605.1181,
1751407002.9857624,738.67426,725.48676,736.37305,970.6495,
1751407002.9896529,740.09033,726.5489,734.2489,998.6175,
1751407002.9935434,725.22125,724.51324,726.2833,693.89,
1751407002.9974339,714.06946,727.52246,719.9109,418.9007,
1751407003.0013244,715.5741,730.0006,723.1856,558.6523,
1751407003.0052149,732.30176,727.52246,728.4075,941.9734,
1751407003.0091054,743.6306,730.3546,730.2661,1029.8602,
1751407003.0129960,731.2397,730.1776,724.69025,738.0547,
1751407003.0168865,721.85803,724.95575,718.5833,422.70645,
1751407003.0207770,723.0086,728.93854,721.681,506.96454,
1751407003.0246675,732.8328,732.21326,729.8236,897.9857,
1751407003.0285580,741.3294,729.9121,731.50525,1031.0109,
1751407003.0324485,727.0799,728.23047,724.69025,771.51013,
1751407003.0363390,711.7683,728.319,717.69824,446.33768,
1751407003.0402296,707.874,725.7523,718.31775,466.25162,
1751407003.0441201,720.70746,726.1948,723.1856,845.4129,
1751407003.0480106,736.10754,732.21326,724.95575,1043.1362,
1751407003.0519011,731.68225,727.4339,724.1592,824.2599,
1751407003.0557916,723.8052,721.94653,721.76953,473.33212,
1751407003.0596821,721.94653,726.2833,719.3798,433.41574,
1751407003.0635726,728.05347,728.58453,723.9822,798.239,
1751407003.0674632,740.5329,723.8937,727.4339,1041.7201,
1751407003.0713537,735.488,719.2028,724.86725,872.5844,
1751407003.0752442,719.1143,722.21204,720.4419,516.4347,
1751407003.0791347,714.9545,728.496,717.87524,415.44894,
1751407003.0830252,726.3718,728.4075,719.6454,751.0651,
1751407003.0869157,739.9133,726.0178,724.51324,1032.9579,
1751407003.0908062,740.00183,725.8408,722.8316,905.2432,
1751407003.0946968,722.7431,726.1948,719.2913,554.581,
1751407003.0985873,714.7775,724.4247,720.0879,402.4385,
1751407003.1024778,723.0086,723.9822,723.4511,699.2004,
1751407003.1063681,736.5501,727.78796,729.29254,1019.505,
1751407003.1102586,738.58575,726.6374,727.87646,947.5493,
1751407003.1141491,723.3626,723.0086,719.4683,604.056,
1751407003.1180396,714.6005,725.30975,716.4591,395.4465,
1751407003.1219301,719.5569,727.69946,719.9109,640.4321,
1751407003.1258206,734.957,729.8236,725.9293,997.7324,
1751407003.1297112,737.2581,729.38104,727.61096,978.88055,
1751407003.1336017,719.7339,727.69946,722.6546,645.91956,
1751407003.1374922,712.6534,723.0086,719.7339,395.6235,
1751407003.1413827,721.504,724.60175,723.5397,599.98474,
1751407003.1452732,731.4167,729.29254,729.46954,978.52655,
1751407003.1491637,733.7179,729.46954,728.05347,1008.9727,
1751407003.1530542,721.32697,725.5753,721.14996,694.5981,
1751407003.1569448,709.64417,720.53046,716.3706,409.4305,
1751407003.1608353,720.2649,724.86725,719.5569,547.766,
1751407003.1647258,739.47076,731.85925,725.9293,930.202,
1751407003.1686163,747.43634,731.4167,727.4339,1020.5671,
1751407003.1725068,734.86847,726.8144,724.95575,735.488,
1751407003.1763973,718.7603,727.4339,720.2649,423.32602,
1751407003.1802878,717.4327,726.8144,719.6454,501.38864,
1751407003.1841784,730.8857,725.7523,727.0799,893.29486,
1751407003.1880689,738.0547,727.78796,733.5409,1039.242,
1751407003.1919594,725.7523,726.5489,728.67303,788.0608,
1751407003.1958499,715.043,726.4603,722.47754,453.50668,
1751407003.1997404,712.1223,726.9029,722.21204,464.924,
1751407003.2036309,723.0971,727.2569,727.3454,844.8819,
1751407003.2075214,738.2317,727.4339,728.93854,1038.5338,
1751407003.2114120,732.12476,721.85803,726.9914,825.49896,
1751407003.2153025,719.0258,725.6638,728.67303,487.58163,
1751407003.2191930,713.89246,729.5581,725.5753,441.82385,
1751407003.2230835,723.8052,728.05347,729.38104,797.9735,
1751407003.2269740,737.6122,729.5581,736.7271,1041.3661,
1751407003.2308645,734.1604,727.1684,731.1512,876.30164,
1751407003.2347550,718.14075,726.5489,724.60175,521.21405,
1751407003.2386456,715.22003,726.5489,723.6282,412.61673,
1751407003.2425361,727.69946,727.4339,724.86725,744.7812,
1751407003.2464266,735.75354,727.4339,728.67303,1033.312,
1751407003.2503171,733.8949,719.2028,729.02704,908.695,
1751407003.2542076,724.86725,719.7339,724.69025,559.71436,
1751407003.2580981,719.6454,729.11554,722.38904,401.1109,
1751407003.2619884,724.3362,733.0983,724.95575,684.50836,
1751407003.2658789,733.6294,729.38104,728.67303,1013.7521,
1751407003.2697694,733.9834,726.3718,729.02704,947.37225,
1751407003.2736599,721.23846,723.3626,724.86725,601.4008,
1751407003.2775505,709.3786,719.3798,718.31775,392.7028,
1751407003.2814410,719.0258,721.76953,719.5569,636.8919,
1751407003.2853315,736.28455,728.05347,730.0006,990.7404,
1751407003.2892220,739.9133,728.93854,731.50525,981.3587,
1751407003.2931125,727.61096,726.0178,725.30975,650.07935,
1751407003.2970030,715.22003,724.3362,720.4419,398.36722,
1751407003.3008935,717.1672,724.69025,721.94653,588.3019,
1751407003.3047841,732.12476,728.14197,728.93854,958.7896,
1751407003.3086746,739.38226,727.61096,730.0006,1005.25543,
1751407003.3125651,728.319,724.86725,724.3362,704.8648,
1751407003.3164556,717.2557,723.0086,719.7339,416.334,
1751407003.3203461,718.40625,723.6282,722.9201,541.482,
1751407003.3242366,731.0627,726.6374,728.14197,932.50323,
1751407003.3281271,743.45355,723.1856,732.9213,1028.1786,
1751407003.3320177,736.28455,719.6454,727.2569,747.5249,
1751407003.3359082,718.5833,725.9293,720.61896,439.16864,
1751407003.3397987,718.49475,727.3454,722.6546,501.74265,
1751407003.3436892,730.6202,725.22125,726.4603,884.5328,
1751407003.3475797,738.0547,727.4339,732.8328,1040.3925,
1751407003.3514702,727.78796,726.7259,730.7972,794.9643,
1751407003.3553607,714.33496,723.1856,726.3718,460.4987,
1751407003.3592513,716.4591,723.4511,726.1063,469.26083,
1751407003.3631418,727.0799,723.8937,727.2569,842.84625,
1751407003.3670323,739.11676,727.87646,732.39026,1044.9948,
1751407003.3709228,735.75354,730.2661,734.51447,842.93475,
1751407003.3748133,720.3534,726.8144,728.58453,495.2817,
1751407003.3787038,718.5833,726.0178,725.5753,437.0445,
1751407003.3825943,728.23047,725.22125,728.14197,789.21136,
1751407003.3864849,743.27655,730.7087,733.1868,1036.5867,
1751407003.3903754,741.772,733.0983,731.68225,873.558,
1751407003.3942659,719.0258,726.4603,723.0971,523.0727,
1751407003.3981564,710.0867,726.4603,723.6282,412.88226,
1751407003.4020469,721.41547,732.39026,731.94775,735.311,
1751407003.4059374,737.3466,735.311,735.75354,1030.7452,
1751407003.4098279,733.8949,732.03625,735.2225,920.2893,
1751407003.4137185,719.9994,729.11554,725.7523,567.59143,
1751407003.4176090,719.5569,728.67303,719.4683,404.29715,
1751407003.4214993,724.4247,732.12476,724.77875,686.27844,
1751407003.4253898,734.77997,732.9213,729.6466,1009.4152,
1751407003.4292803,737.7007,730.7087,729.02704,946.75275,
1751407003.4331708,719.4683,729.6466,724.77875,601.7549,
1751407003.4370613,711.9453,730.7972,723.1856,392.17175,
1751407003.4409518,717.3442,731.59375,724.77875,625.8286,
1751407003.4448423,728.05347,730.9742,728.85004,978.261,
1751407003.4487329,734.51447,728.58453,731.50525,978.261,
1751407003.4526234,722.21204,727.1684,728.23047,655.7438,
1751407003.4565139,712.7419,725.22125,721.76953,397.1281,
1751407003.4604044,715.13153,728.93854,728.4075,578.6547,
1751407003.4642949,722.5661,731.94775,734.3374,949.4079,
1751407003.4681854,726.9029,732.12476,730.8857,998.7945,
1751407003.4720759,711.14874,724.4247,727.69946,697.9613,
1751407003.4759665,701.5901,720.88446,722.38904,408.89948,
1751407003.4798570,711.8568,728.85004,723.6282,534.49,
1751407003.4837475,725.39825,731.4167,731.94775,915.864,
1751407003.4876380,733.36383,734.957,734.86847,1024.4613,
1751407003.4915285,723.8937,731.68225,730.4431,751.4191,
1751407003.4954190,709.2016,725.6638,725.04425,429.16742,
1751407003.4993095,708.051,729.9121,723.8937,492.89203,
1751407003.5032001,719.5569,734.69147,732.03625,878.51434,
1751407003.5070906,732.5673,731.3282,737.7892,1034.905,
1751407003.5109811,727.69946,725.30975,730.7972,798.8586,
1751407003.5148716,708.4935,723.7167,725.6638,456.4274,
1751407003.5187621,713.62695,726.6374,727.1684,460.85272,
1751407003.5226526,729.7351,726.5489,732.03625,840.5451,
1751407003.5265431,728.4075,723.6282,735.93054,1037.4718,
1751407003.5304337,723.4511,724.51324,728.67303,837.1818,
1751407003.5343242,709.0246,723.5397,724.3362,492.538,
1751407003.5382147,704.9533,722.12354,724.4247,432.26517,
1751407003.5421052,715.7511,725.8408,724.77875,781.2458,
1751407003.5459957,728.4075,726.3718,730.7972,1031.2764,
1751407003.5498862,726.3718,724.60175,726.7259,879.48785,
1751407003.5537767,713.4499,725.30975,719.7339,533.4279,
1751407003.5576673,713.3614,724.86725,721.14996,414.9179,
1751407003.5615578,718.40625,724.95575,727.2569,731.1512,
1751407003.5654483,730.7087,724.2477,731.0627,1029.4177,
1751407003.5693388,731.94775,725.8408,730.8857,921.0859,
1751407003.5732293,717.60974,727.78796,726.7259,571.9282,
1751407003.5771196,712.3878,730.8857,725.9293,400.13733,
1751407003.5810101,718.9373,731.77075,730.7087,681.4106,
1751407003.5849006,735.93054,729.6466,731.3282,1015.34515,
1751407003.5887911,737.1696,725.9293,732.12476,962.8609,
1751407003.5926816,720.61896,722.47754,729.46954,621.13776,
1751407003.5965722,711.14874,723.9822,726.6374,389.42807,
1751407003.6004627,717.60974,729.29254,730.7087,627.3332,
1751407003.6043532,735.75354,732.21326,732.47876,987.9967,
1751407003.6082437,737.7892,732.03625,730.2661,975.78284,
1751407003.6121342,724.2477,728.14197,724.60175,656.0093,
1751407003.6160247,715.48553,725.5753,723.5397,401.64194,
1751407003.6199152,724.2477,731.2397,727.3454,579.36273,
1751407003.6238058,739.8248,733.0983,730.7087,954.8068,
1751407003.6276963,744.5157,727.1684,726.7259,1004.10486,
1751407003.6315868,733.45233,726.5489,723.5397,708.1395,
1751407003.6354773,718.31775,728.93854,724.77875,414.47537,
1751407003.6393678,720.53046,732.9213,727.61096,533.2509,
1751407003.6432583,731.4167,733.8949,732.12476,923.033,
1751407003.6471488,739.7363,730.6202,730.9742,1024.1958,
1751407003.6510394,736.6386,727.3454,725.13275,755.933,
1751407003.6549299,726.2833,724.69025,722.5661,442.6204,
1751407003.6588204,726.1063,726.4603,724.77875,494.66214,
1751407003.6627109,740.00183,730.1776,727.87646,877.1867,
1751407003.6666014,749.2065,727.3454,731.68225,1040.658,
1751407003.6704919,738.58575,727.87646,731.4167,803.0184,
1751407003.6743824,723.0086,732.21326,723.2741,469.61484,
1751407003.6782730,717.87524,728.76154,723.6282,463.3309,
1751407003.6821635,728.4075,726.0178,731.0627,829.39325,
1751407003.6860540,741.4179,728.319,732.47876,1038.0913,
1751407003.6899445,730.8857,728.67303,727.2569,843.9968,
1751407003.6938350,718.5833,729.11554,721.32697,493.42307,
1751407003.6977255,720.88446,731.4167,722.7431,424.4766,
1751407003.7016160,728.05347,733.0983,728.67303,781.59985,
1751407003.7055066,739.8248,728.67303,728.85004,1039.1534,
1751407003.7093971,734.3374,725.48676,727.4339,886.5684,
1751407003.7132876,721.14996,729.5581,723.8052,537.3222,
1751407003.7171781,717.52124,731.94775,723.3626,412.97076,
1751407003.7210686,725.13275,730.9742,730.4431,723.9822,
1751407003.7249591,739.8248,729.8236,733.0983,1024.5498,
1751407003.7288496,741.8605,727.61096,730.4431,929.22845,
1751407003.7327399,722.03503,724.4247,720.3534,578.03516,
1751407003.7366304,713.62695,730.0006,716.7247,400.9339,
1751407003.7405210,725.48676,732.39026,728.76154,678.48987,
1751407003.7444115,740.26733,731.50525,732.7443,1011.00836,
1751407003.7483020,742.48,733.7179,727.61096,963.4804,
1751407003.7521925,721.14996,730.2661,725.8408,624.324,
1751407003.7560830,710.97174,726.9914,724.3362,397.2166,
1751407003.7599735,722.30054,726.1063,731.1512,617.95154,
1751407003.7638640,734.69147,728.4075,736.9926,978.261,
1751407003.7677546,737.0811,729.5581,735.3995,992.51056,
1751407003.7716451,722.7431,727.61096,731.2397,673.0025,
1751407003.7755356,711.9453,725.6638,726.4603,404.29715,
1751407003.7794261,715.5741,723.4511,728.319,571.5742,
1751407003.7833166,732.03625,727.3454,733.0098,950.64703,
1751407003.7872071,737.4351,728.319,730.7087,1009.1497,
1751407003.7910976,721.14996,726.2833,723.6282,709.64417,
1751407003.7949882,712.6534,727.61096,719.9994,415.44894,
1751407003.7988787,710.61774,728.76154,721.06146,519.5325,
1751407003.8027692,723.5397,729.02704,724.95575,901.7915,
1751407003.8066597,739.6478,727.78796,726.7259,1028.7096,
1751407003.8105502,728.76154,724.86725,723.8052,760.2698,
1751407003.8144407,711.14874,725.5753,717.4327,431.3801,
1751407003.8183312,709.2901,730.0006,718.22925,483.86438,
1751407003.8222218,726.6374,730.2661,727.3454,871.78784,
1751407003.8261123,742.56854,729.5581,729.7351,1045.6144,
1751407003.8300028,736.10754,727.3454,723.2741,810.54144,
1751407003.8338933,720.3534,722.6546,721.76953,466.69412,
1751407003.8377838,718.05225,725.6638,721.14996,461.8263,
1751407003.8416743,731.3282,734.1604,721.85803,829.5703,
1751407003.8455648,745.1352,733.45233,728.85004,1044.3752,
1751407003.8494554,740.00183,730.0891,727.87646,856.3877,
1751407003.8533459,725.7523,728.76154,721.85803,506.699,
1751407003.8572364,722.38904,724.60175,723.2741,428.81342,
1751407003.8611269,727.87646,727.2569,727.61096,768.5894,
1751407003.8650174,741.3294,728.496,729.8236,1035.3477,
1751407003.8689079,740.5329,722.6546,729.38104,890.46265,
1751407003.8727984,723.3626,726.2833,724.69025,540.2429,
1751407003.8766890,715.6626,726.7259,721.14996,415.36044,
1751407003.8805795,721.14996,726.6374,723.6282,721.76953,
1751407003.8844700,729.7351,729.38104,728.319,1021.0981,
1751407003.8883605,731.3282,726.3718,730.8857,929.40546,
1751407003.8922508,718.9373,725.22125,725.48676,579.5398,
1751407003.8961413,712.8304,726.1948,720.4419,400.31436,
1751407003.9000318,725.39825,726.1063,724.77875,680.1715,
1751407003.9039223,740.6214,725.04425,729.8236,1009.8578,
1751407003.9078128,739.8248,725.39825,730.6202,959.1436,
1751407003.9117033,726.8144,728.67303,727.2569,626.8907,
1751407003.9155939,719.3798,729.5581,721.23846,403.05804,
1751407003.9194844,719.2913,729.38104,722.7431,620.69525,
1751407003.9233749,732.30176,729.11554,729.02704,981.62427,
1751407003.9272654,744.0731,729.6466,727.78796,990.12085,
1751407003.9311559,725.6638,727.2569,721.681,667.86914,
1751407003.9350464,708.5821,722.8316,719.3798,401.28793,
1751407003.9389369,715.39703,725.39825,722.9201,570.3351,
1751407003.9428275,727.87646,727.3454,729.9121,947.01825,
1751407003.9467180,732.8328,725.6638,731.2397,1007.91064,
1751407003.9506085,724.51324,726.5489,726.1063,714.24646,
1751407003.9544990,712.1223,727.52246,719.7339,417.21906,
1751407003.9583895,718.40625,730.6202,722.9201,529.7992,
1751407003.9622800,731.4167,730.9742,731.77075,911.35016,
1751407003.9661705,736.46155,727.78796,733.8949,1028.0016,
1751407003.9700611,726.3718,724.51324,726.8144,765.04913,
1751407003.9739516,712.9189,723.8052,722.9201,442.79742,
1751407003.9778421,713.53845,726.1948,726.5489,485.723,
1751407003.9817326,726.4603,727.69946,728.14197,865.8579,
1751407003.9856231,738.58575,726.1063,728.319,1040.3925,
1751407003.9895136,731.50525,723.3626,728.67303,812.223,
1751407003.9934042,718.6718,727.1684,727.1684,477.84595,
1751407003.9972947,716.2821,729.8236,727.69946,461.64926,
1751407004.0011852,728.67303,727.78796,733.0983,824.96796,
1751407004.0050757,738.0547,728.05347,739.29376,1041.4546,
1751407004.0089662,730.3546,726.8144,738.1432,850.5463,
1751407004.0128567,717.0787,726.7259,731.50525,505.81396,
1751407004.0167472,711.5913,727.52246,725.39825,431.6456,
1751407004.0206378,724.86725,728.23047,727.4339,774.3423,
1751407004.0245283,742.65704,728.76154,734.2489,1040.5695,
1751407004.0284188,740.8869,727.87646,732.03625,900.99493,
1751407004.0323093,723.7167,729.11554,723.8052,544.2257,
1751407004.0361998,710.1752,727.3454,721.5925,409.519,
1751407004.0400903,721.06146,728.4075,726.9914,721.85803,
1751407004.0439808,739.6478,733.36383,728.76154,1021.3636,
1751407004.0478711,736.28455,732.47876,727.87646,928.78595,
1751407004.0517616,718.9373,728.93854,727.52246,586.17773,
1751407004.0556521,707.9625,726.8144,722.8316,399.96033,
1751407004.0595427,717.1672,726.9914,723.9822,665.2139,
1751407004.0634332,734.0719,724.95575,730.2661,1002.5118,
1751407004.0673237,730.8857,729.46954,726.4603,961.26776,
1751407004.0712142,712.4763,729.20404,723.8937,628.39526,
1751407004.0751047,707.16595,724.69025,724.95575,400.7569,
1751407004.0789952,715.7511,728.05347,724.1592,614.8538,
1751407004.0828857,730.5317,731.1512,728.23047,971.71155,
1751407004.0867763,735.488,731.2397,731.3282,986.31506,
1751407004.0906668,724.60175,729.11554,727.69946,670.78986,
1751407004.0945573,715.13153,726.3718,723.8937,399.5178,
1751407004.0984478,715.9281,721.681,723.0971,566.88336,
1751407004.1023383,728.319,721.23846,728.05347,947.46075,
1751407004.1062288,736.28455,726.1063,734.51447,1013.7521,
1751407004.1101193,720.88446,726.1063,728.85004,715.7511,
1751407004.1140099,702.91766,726.2833,722.6546,416.59952,
1751407004.1179004,701.413,726.7259,724.51324,519.7095,
1751407004.1217909,718.6718,728.05347,729.5581,903.73865,
1751407004.1256814,733.5409,731.1512,733.6294,1027.6476,
1751407004.1295719,730.0006,728.496,730.8857,767.79285,
1751407004.1334624,717.4327,728.14197,724.1592,442.3549,
1751407004.1373529,716.1936,729.02704,722.9201,483.68735,
1751407004.1412435,729.20404,729.6466,725.7523,864.2648,
1751407004.1451340,741.595,728.93854,731.50525,1036.4982,
1751407004.1490245,732.12476,727.0799,731.85925,812.6656,
1751407004.1529150,716.63617,730.6202,719.7339,474.92523,
1751407004.1568055,712.0338,729.11554,718.49475,453.59518,
1751407004.1606960,720.1764,727.1684,727.2569,815.14374,
1751407004.1645865,733.0983,730.7972,729.9121,1037.6488,
1751407004.1684771,728.76154,728.76154,725.9293,857.71533,
1751407004.1723676,717.1672,725.9293,719.6454,510.3278,
1751407004.1762581,714.7775,723.7167,720.88446,430.84906,
1751407004.1801486,726.2833,725.22125,725.13275,771.06757,
1751407004.1840391,740.09033,731.2397,725.48676,1035.0822,
1751407004.1879296,735.134,731.0627,723.5397,893.47186,
1751407004.1918201,715.22003,729.46954,721.504,544.4027,
1751407004.1957107,706.4579,726.9914,722.6546,416.86505,
1751407004.1996012,718.49475,726.0178,727.3454,718.31775,
1751407004.2034914,732.7443,728.05347,728.76154,1018.08887,
1751407004.2073820,733.45233,728.14197,729.7351,931.4411,
1751407004.2112725,720.61896,726.3718,726.9029,579.0087,
1751407004.2151630,717.69824,723.0971,723.0971,395.80054,
1751407004.2190535,724.3362,725.22125,726.4603,667.2496,
1751407004.2229440,737.3466,729.9121,729.7351,1003.1313,
1751407004.2268345,740.8869,730.1776,729.9121,966.5782,
1751407004.2307250,723.4511,729.8236,728.58453,631.58154,
1751407004.2346156,718.14075,726.9029,723.8937,401.28793,
1751407004.2385061,722.8316,727.69946,725.8408,617.50903,
1751407004.2423966,732.30176,729.38104,734.1604,972.15405,
1751407004.2462871,734.60297,726.2833,735.488,986.22656,
1751407004.2501776,720.88446,722.6546,729.11554,681.1451,
1751407004.2540681,709.64417,718.05225,725.13275,408.89948,
1751407004.2579587,719.9109,724.4247,728.67303,567.41437,
1751407004.2618492,735.93054,732.12476,734.86847,942.85846,
1751407004.2657397,740.5329,732.21326,734.69147,1008.44165,
1751407004.2696302,730.2661,732.39026,730.0006,724.2477,
1751407004.2735207,719.3798,728.14197,723.5397,423.76855,
1751407004.2774112,726.4603,728.496,724.4247,528.11755,
1751407004.2813017,737.7892,732.47876,732.30176,916.9261,
1751407004.2851923,739.5593,729.20404,733.8064,1031.0109,
1751407004.2890828,734.957,723.3626,732.12476,771.68713,
1751407004.2929733,722.9201,721.681,726.5489,457.8435,
1751407004.2968638,715.043,725.13275,725.22125,488.11267,
1751407004.3007543,731.0627,728.67303,728.496,863.82227,
1751407004.3046448,747.6134,730.9742,730.2661,1037.0293,
1751407004.3085353,741.4179,728.319,730.3546,815.14374,
1751407004.3124259,727.78796,727.2569,728.58453,484.21838,
1751407004.3163164,725.8408,732.39026,726.9029,465.101,
1751407004.3202069,734.2489,733.45233,728.58453,822.9323,
1751407004.3240974,743.09955,729.9121,733.0983,1039.8615,
1751407004.3279879,748.587,726.5489,733.0098,870.1947,
1751407004.3318784,726.7259,724.60175,726.5489,522.8957,
1751407004.3357689,705.5729,724.1592,723.1856,421.29037,
1751407004.3396595,720.4419,727.4339,727.69946,759.3847,
1751407004.3435500,740.44434,730.8857,733.9834,1036.0557,
1751407004.3474405,736.5501,730.1776,732.9213,895.8616,
1751407004.3513310,713.62695,726.6374,724.1592,541.0395,
1751407004.3552215,706.3694,723.7167,721.76953,404.56265,
1751407004.3591120,718.7603,726.8144,728.14197,709.4671,
1751407004.3630023,734.1604,729.20404,732.7443,1018.08887,
1751407004.3668928,737.7007,727.1684,729.38104,935.51245,
1751407004.3707833,726.3718,728.319,723.1856,597.7721,
1751407004.3746738,720.2649,727.4339,720.2649,404.38565,
1751407004.3785644,724.4247,728.05347,726.1948,661.05414,
1751407004.3824549,733.7179,733.7179,734.3374,1004.8129,
1751407004.3863454,737.2581,735.3995,735.3995,968.79083,
1751407004.3902359,726.2833,730.9742,727.69946,637.3344,
1751407004.3941264,720.79596,726.7259,720.70746,405.44772,
1751407004.3980169,725.39825,731.0627,725.7523,613.3492,
1751407004.4019074,736.7271,737.0811,731.94775,973.0391,
1751407004.4057980,739.7363,733.8064,733.9834,986.49207,
1751407004.4096885,722.47754,730.5317,729.38104,676.1887,
1751407004.4135790,713.89246,729.02704,721.76953,415.71445,
1751407004.4174695,717.96375,728.85004,725.8408,567.67993,
1751407004.4213600,728.93854,733.6294,736.6386,941.9734,
1751407004.4252505,738.76276,733.8949,738.3202,1020.1245,
1751407004.4291410,728.4075,729.02704,732.30176,728.76154,
1751407004.4330316,717.52124,727.69946,725.39825,428.99042,
1751407004.4369221,719.2028,725.9293,722.21204,525.9049,
1751407004.4408126,729.7351,727.87646,728.05347,902.1455,
1751407004.4447031,740.8869,735.134,732.6558,1025.0809,
1751407004.4485936,730.6202,729.5581,725.7523,773.9883,
1751407004.4524841,717.78674,724.3362,720.79596,455.1883,
1751407004.4563746,717.4327,729.7351,728.14197,487.67014,
1751407004.4602652,730.7087,732.03625,735.488,865.8579,
1751407004.4641557,738.58575,732.03625,735.134,1044.1982,
1751407004.4680462,731.1512,731.1512,732.12476,825.14496,
1751407004.4719367,722.5661,726.5489,726.1063,484.57242,
1751407004.4758272,717.96375,725.7523,725.30975,450.58597,
1751407004.4797177,728.4075,726.7259,731.1512,807.08966,
1751407004.4836082,741.595,725.48676,731.3282,1038.0028,
1751407004.4874988,737.7892,728.14197,729.02704,861.7866,
1751407004.4913893,720.3534,729.5581,725.04425,513.337,
1751407004.4952798,712.8304,726.5489,724.69025,425.09613,
1751407004.4991703,719.1143,728.319,730.0891,754.16284,
1751407004.5030608,731.4167,730.4431,735.2225,1026.143,
1751407004.5069513,728.76154,728.67303,730.7972,901.08344,
1751407004.5108418,714.06946,725.7523,725.7523,552.1913,
1751407004.5147324,715.7511,725.9293,729.20404,411.28915,
1751407004.5186226,725.5753,729.38104,735.311,712.2993,
1751407004.5225132,737.9662,730.2661,738.93976,1020.39,
1751407004.5264037,737.3466,728.319,735.84204,939.67224,
1751407004.5302942,720.3534,726.1063,733.0983,592.28467,
1751407004.5341847,711.5913,723.1856,730.0891,395.358,
