timestamps,eeg_1,eeg_2,eeg_3,eeg_4,note
1751473770.9787014,672.20593,524.75433,664.06335,5.310383,
1751473770.9825969,646.18506,569.6271,657.8679,10.26674,
1751473770.9864926,724.3362,819.6576,752.2157,986.13806,
1751473770.9903882,794.2562,933.7423,813.99316,1450.0,
1751473770.9942837,770.89056,787.8838,763.54456,1107.7458,
1751473770.9981794,683.7118,569.45,665.6565,107.35824,
1751473771.0020750,640.9632,564.7592,646.9816,0.0,
1751473771.0059707,705.2188,788.4148,735.66504,835.94275,
1751473771.0098662,781.2458,929.671,816.8254,1450.0,
1751473771.0137618,775.49286,815.6748,784.8746,1231.8318,
1751473771.0176575,689.02216,579.9823,689.8187,225.33723,
1751473771.0215530,632.9976,534.57855,651.0529,0.0,
1751473771.0254486,695.3061,736.8156,721.504,679.729,
1751473771.0293443,780.4492,911.08466,804.7885,1450.0,
1751473771.0332398,784.52057,839.30597,791.6011,1348.3062,
1751473771.0371354,707.52,615.2078,698.4038,357.65427,
1751473771.0410311,644.5035,543.07513,642.64484,0.0,
1751473771.0449266,686.544,719.4683,699.3774,535.9946,
1751473771.0488224,780.0952,913.9169,789.5654,1450.0,
1751473771.0527179,804.6115,876.39014,797.17694,1446.2827,
1751473771.0566134,730.7087,639.28156,717.69824,500.23804,
1751473771.0605092,648.4862,509.88525,654.23914,0.0,
1751473771.0644047,667.1611,668.6657,696.45667,384.20618,
1751473771.0683002,761.5974,894.44543,788.50336,1369.3707,
1751473771.0721960,797.885,899.66736,810.0104,1450.0,
1751473771.0760915,739.20526,684.95087,727.4339,651.1414,
1751473771.0799873,658.576,534.66705,647.6012,0.0,
1751473771.0838828,659.99207,652.2035,679.10944,249.49948,
1751473771.0877783,750.5341,875.06256,774.2538,1253.5159,
1751473771.0916741,807.17816,907.2789,805.3195,1450.0,
1751473771.0955696,754.7824,702.4751,738.4972,802.57587,
1751473771.0994651,665.0369,519.3554,657.15985,0.0,
1751473771.1033609,658.1334,605.9147,676.2772,130.10437,
1751473771.1072564,741.3294,851.9624,765.49164,1134.4747,
1751473771.1111519,804.877,923.9181,797.531,1450.0,
1751473771.1150477,766.2882,742.65704,741.6835,951.7091,
1751473771.1189432,675.8347,549.71313,665.3024,0.0,
1751473771.1228390,651.4069,602.81696,666.0105,17.701275,
1751473771.1267345,732.30176,830.8094,752.1272,990.5634,
1751473771.1306300,802.66437,934.3618,814.70123,1450.0,
1751473771.1345258,770.53656,784.078,770.97906,1097.1251,
1751473771.1384213,682.03015,560.5994,673.7991,97.888054,
1751473771.1423168,637.1574,559.89136,650.16785,0.0,
1751473771.1462126,701.3245,786.8217,736.5501,849.2187,
1751473771.1501081,785.93665,921.61694,814.52423,1450.0,
1751473771.1540036,778.4136,794.7873,782.39636,1222.7156,
1751473771.1578994,699.55444,572.9903,686.721,215.60153,
1751473771.1617949,642.73334,541.305,645.0345,0.0,
1751473771.1656907,692.3854,755.6675,707.52,692.2969,
1751473771.1695862,785.2286,928.4319,793.45966,1450.0,
1751473771.1734817,796.3804,843.46576,785.84814,1335.4728,
1751473771.1773775,711.14874,615.5619,695.3061,341.6346,
1751473771.1812730,642.1138,546.5269,649.54834,0.0,
1751473771.1851685,683.6233,719.8224,708.7591,540.8625,
1751473771.1890643,776.8205,898.1627,798.5046,1450.0,
1751473771.1929598,801.6908,856.2107,803.72644,1430.8826,
1751473771.1968555,722.7431,633.1746,712.7419,469.70334,
1751473771.2007511,646.45056,529.3566,655.0357,0.0,
1751473771.2046466,676.1887,692.1199,693.44745,402.4385,
1751473771.2085423,771.86414,905.0662,776.2009,1380.8765,
1751473771.2124379,806.2931,888.86957,798.239,1450.0,
1751473771.2163334,743.27655,659.72656,717.96375,637.0689,
1751473771.2202291,663.2668,519.5325,648.1322,0.0,
1751473771.2241247,670.1703,650.7874,681.67615,268.08582,
1751473771.2280202,757.8801,876.7442,772.12964,1272.2792,
1751473771.2319160,802.0448,909.226,803.2839,1450.0,
1751473771.2358115,750.8881,700.7935,737.7007,786.02515,
1751473771.2397072,667.60364,519.7095,655.0357,0.0,
1751473771.2436028,660.25757,615.7389,668.31165,135.59177,
1751473771.2474983,749.91455,864.53033,766.3767,1140.4047,
1751473771.2513940,815.6748,925.95374,812.5771,1450.0,
1751473771.2552896,772.39514,734.3374,739.20526,928.1664,
1751473771.2591851,677.78186,541.305,649.1943,0.0,
1751473771.2630808,653.17706,588.74445,656.62885,27.702496,
1751473771.2669764,731.2397,819.8346,752.3042,1001.6267,
1751473771.2708719,802.66437,918.96173,815.6748,1450.0,
1751473771.2747676,779.38715,768.9434,763.98706,1071.1042,
1751473771.2786632,695.3061,561.573,661.6737,79.832756,
1751473771.2825589,657.07135,563.96265,649.1943,0.0,
1751473771.2864544,723.4511,784.078,741.3294,859.2199,
1751473771.2903500,805.9391,928.0779,810.0104,1450.0,
1751473771.2942457,793.8137,812.046,770.80206,1202.3591,
1751473771.2981412,701.3245,579.7168,676.3657,196.30714,
1751473771.3020368,649.54834,549.89014,646.6276,0.0,
1751473771.3059325,709.82117,764.96063,718.9373,707.34296,
1751473771.3098280,792.3976,931.61816,800.8942,1450.0,
1751473771.3137238,796.55743,833.37604,789.47687,1322.1083,
1751473771.3176193,717.78674,585.20416,697.7843,323.66782,
1751473771.3215148,656.80585,521.30255,655.1242,0.0,
1751473771.3254106,700.9705,722.5661,714.42346,565.2017,
1751473771.3293061,782.30786,912.41223,791.9551,1450.0,
1751473771.3332016,796.82294,853.467,788.94586,1418.8457,
1751473771.3370974,722.8316,627.95276,706.90045,453.6837,
1751473771.3409929,652.55756,536.9682,650.8759,0.0,
1751473771.3448884,680.26,703.62573,696.19116,416.59952,
1751473771.3487842,765.13763,905.2432,786.6447,1392.8248,
1751473771.3526797,800.7172,883.29364,800.8942,1450.0,
1751473771.3565755,738.67426,654.32764,717.1672,613.1722,
1751473771.3604710,654.15063,512.983,651.1414,0.0,
1751473771.3643665,665.0369,655.7438,683.1807,282.9549,
1751473771.3682623,757.9686,879.04535,776.555,1285.9092,
1751473771.3721578,820.63116,899.0478,807.7977,1450.0,
1751473771.3760533,766.0227,701.5016,729.46954,762.3054,
1751473771.3799491,655.1242,535.9061,688.4026,0.0,
1751473771.3838446,648.66327,632.6436,765.31464,141.6102,
1751473771.3877401,748.587,857.5383,883.47064,1142.1748,
1751473771.3916359,824.4369,916.3065,936.22046,1450.0,
1751473771.3955314,790.716,741.6835,875.94763,913.82837,
1751473771.3994272,705.3958,551.4832,780.3607,0.0,
1751473771.4033227,692.3854,598.1261,771.86414,44.69572,
1751473771.4072182,768.5894,832.75653,861.5211,1028.2671,
1751473771.4111140,839.21747,938.0791,914.2709,1450.0,
1751473771.4150095,821.87024,785.58264,859.0429,1056.1466,
1751473771.4189050,735.84204,562.3695,758.5882,66.114265,
1751473771.4228008,701.1475,572.3707,743.8076,0.0,
1751473771.4266963,768.8549,811.16095,829.12775,884.4442,
1751473771.4305918,844.7934,950.11597,889.1351,1450.0,
1751473771.4344876,835.3232,821.51624,850.01526,1194.305,
1751473771.4383831,753.89734,591.84216,756.11,184.71281,
1751473771.4422789,703.27167,562.9891,725.7523,0.0,
1751473771.4461744,752.65826,774.96185,800.18616,746.90533,
1751473771.4500699,834.3496,942.50446,872.9384,1450.0,
1751473771.4539657,837.1818,853.2015,847.9796,1315.2048,
1751473771.4578612,756.464,597.8606,755.0479,319.86206,
1751473771.4617567,690.7923,522.0106,707.7855,0.0,
1751473771.4656525,729.11554,735.57654,773.1032,592.37317,
1751473771.4695480,815.9403,931.79517,861.25555,1450.0,
1751473771.4734437,834.0841,874.266,848.5992,1418.3147,
1751473771.4773393,756.1985,639.28156,753.54333,458.64005,
1751473771.4812348,685.4819,540.0659,693.09344,0.0,
1751473771.4851305,707.07745,708.5821,745.93176,444.30203,
1751473771.4890261,791.6011,916.6606,835.94275,1409.5526,
1751473771.4929216,826.7381,897.8972,843.8198,1450.0,
1751473771.4968174,757.7031,669.1082,766.3767,604.49854,
1751473771.5007129,680.7911,529.6222,693.89,0.0,
1751473771.5046084,692.82794,668.22314,717.3442,305.52402,
1751473771.5085042,775.5814,895.065,809.4793,1305.9116,
1751473771.5123997,827.2691,912.1467,840.01404,1450.0,
1751473771.5162954,770.271,695.3061,760.97784,751.9502,
1751473771.5201910,676.9853,512.0094,682.38416,0.0,
1751473771.5240865,673.8876,614.8538,705.7499,173.82652,
1751473771.5279822,766.2882,866.92,794.1677,1182.6222,
1751473771.5318778,823.1093,927.5469,840.36804,1450.0,
1751473771.5357733,764.87213,737.5237,776.9975,899.93286,
1751473771.5396690,677.69336,545.55334,682.29565,0.0,
1751473771.5435646,668.48865,609.63196,682.47266,57.529144,
1751473771.5474601,747.8789,842.3152,780.9803,1046.5879,
1751473771.5513558,814.61273,926.9273,837.5359,1450.0,
1751473771.5552514,787.3527,765.7572,782.48486,1046.7649,
1751473771.5591471,695.4831,557.14764,687.1635,56.64408,
1751473771.5630426,656.0093,572.9903,667.78064,0.0,
1751473771.5669382,725.5753,794.7873,761.7744,906.74786,
1751473771.5708339,802.57587,921.70544,834.4381,1450.0,
1751473771.5747294,791.3355,802.0448,796.11487,1178.1084,
1751473771.5786250,705.2188,575.734,690.34973,169.84373,
1751473771.5825207,657.42535,552.0143,652.82306,0.0,
1751473771.5864162,713.71545,770.0055,740.9754,760.3583,
1751473771.5903120,800.18616,935.0699,822.40125,1450.0,
1751473771.5942075,801.6023,836.47375,799.65515,1297.061,
1751473771.5981030,713.71545,593.9663,710.2637,296.9389,
1751473771.6019988,654.9472,535.5521,670.4358,0.0,
1751473771.6058943,698.3153,744.5157,729.02704,607.41925,
1751473771.6097898,782.04236,932.59174,812.7541,1450.0,
1751473771.6136856,802.8414,856.2107,813.1081,1404.0652,
1751473771.6175811,723.8052,613.52625,719.1143,436.07092,
1751473771.6214767,652.469,525.28534,650.6989,0.0,
1751473771.6253724,692.2084,707.52,700.43945,461.02972,
1751473771.6292679,772.12964,907.89844,792.75165,1420.8813,
1751473771.6331637,810.98395,886.6569,807.5322,1450.0,
1751473771.6370592,749.2065,665.47943,735.311,587.7709,
1751473771.6409547,651.761,523.51526,664.7714,0.0,
1751473771.6448505,666.63007,669.3737,698.5809,323.4023,
1751473771.6487460,757.7031,893.02936,803.4609,1321.2233,
1751473771.6526415,806.91266,904.44666,827.0921,1450.0,
1751473771.6565373,756.64105,692.56244,737.3466,731.85925,
1751473771.6604328,666.54156,522.3646,647.9552,0.0,
1751473771.6643283,664.6829,632.5551,672.8255,188.51859,
1751473771.6682241,752.74677,863.73376,777.1745,1197.8453,
1751473771.6721196,808.06323,912.1467,818.06445,1450.0,
1751473771.6760154,768.9434,725.30975,752.56976,877.9833,
1751473771.6799109,682.29565,535.02106,665.2139,0.0,
1751473771.6838064,656.80585,610.33997,679.37494,73.902824,
1751473771.6877022,735.311,857.09576,765.5802,1067.918,
1751473771.6915977,810.71844,933.5653,804.6115,1450.0,
1751473771.6954932,780.6263,746.90533,759.3847,1020.7441,
1751473771.6993890,679.37494,543.07513,674.3301,39.208324,
1751473771.7032845,649.2828,579.45123,666.276,0.0,
1751473771.7071803,727.78796,798.5046,750.5341,925.33417,
1751473771.7110758,806.2046,925.33417,817.3564,1450.0,
1751473771.7149713,788.59186,799.56665,774.1653,1153.7692,
1751473771.7188671,699.4659,574.14087,673.53357,149.66429,
1751473771.7227626,660.08057,553.34186,649.4598,0.0,
1751473771.7266581,723.9822,772.39514,730.8857,775.9354,
1751473771.7305539,804.7885,936.39746,804.34595,1450.0,
1751473771.7344494,794.4332,832.13696,780.6263,1277.2356,
1751473771.7383449,710.79474,589.27545,688.57965,274.36978,
1751473771.7422407,660.4346,526.7015,648.7518,0.0,
1751473771.7461362,704.33374,742.92255,717.4327,620.87225,
1751473771.7500319,788.3263,936.13196,802.75287,1450.0,
1751473771.7539275,800.9827,860.3705,797.9735,1384.2397,
1751473771.7578230,720.4419,622.1998,703.71423,403.9431,
1751473771.7617188,655.4782,524.13477,643.08734,0.0,
1751473771.7656143,690.0842,690.5268,693.713,474.04016,
1751473771.7695098,782.21936,902.6766,783.724,1433.0953,
1751473771.7734056,812.5771,873.735,796.3804,1450.0,
1751473771.7773011,746.63983,644.5035,713.2729,552.81085,
1751473771.7811966,675.12665,532.7199,650.6104,0.0,
1751473771.7850924,680.7026,683.7118,695.92566,335.43918,
1751473771.7889879,765.8457,896.3041,785.75964,1333.8796,
1751473771.7928836,811.33795,905.7743,810.3644,1450.0,
1751473771.7967792,746.37427,689.46466,737.2581,690.8808,
1751473771.8006747,662.7358,519.798,654.06213,0.0,
1751473771.8045704,668.7542,624.94354,675.12665,200.82097,
1751473771.8084660,751.0651,858.7774,762.571,1208.112,
1751473771.8123615,813.63916,921.88245,805.054,1450.0,
1751473771.8162572,765.31464,734.957,747.6134,841.7842,
1751473771.8201528,665.1254,539.8889,660.52313,0.0,
1751473771.8240485,655.3897,601.7549,668.7542,79.74425,
1751473771.8279440,740.17883,840.36804,760.1813,1069.2456,
1751473771.8318396,809.3023,930.7331,811.9575,1450.0,
1751473771.8357353,777.52856,754.7824,752.74677,983.04034,
1751473771.8396308,680.3485,543.42914,659.461,18.32082,
1751473771.8435264,649.2828,581.3099,657.9564,0.0,
1751473771.8474221,722.21204,815.7633,746.46277,931.61816,
1751473771.8513176,799.74365,926.9273,807.7977,1450.0,
1751473771.8552132,781.68835,787.5298,767.2618,1122.7919,
1751473771.8591089,686.10144,565.1132,670.52435,123.023865,
1751473771.8630044,642.64484,540.3314,648.2207,0.0,
1751473771.8669002,708.405,773.8113,734.69147,789.83093,
1751473771.8707957,794.9643,935.3354,816.2058,1450.0,
1751473771.8746912,799.3011,822.13574,792.66315,1258.3837,
1751473771.8785870,705.9269,592.28467,692.3854,254.19032,
1751473771.8824825,646.8046,544.9338,648.9288,0.0,
1751473771.8863780,701.7671,751.3306,714.6005,636.44934,
1751473771.8902738,783.8125,930.6446,800.00916,1450.0,
1751473771.8941693,797.885,858.15784,790.45044,1376.6282,
1751473771.8980649,719.0258,612.9952,694.6866,392.87982,
1751473771.9019606,652.64606,522.2761,641.2287,0.0,
1751473771.9058561,689.19916,712.1223,701.8556,507.9381,
1751473771.9097519,771.06757,921.4399,791.7781,1449.9115,
1751473771.9136474,801.9563,888.78107,794.5218,1450.0,
1751473771.9175429,727.61096,647.42413,713.53845,542.36707,
1751473771.9214387,646.9816,508.73465,655.7438,0.0,
1751473771.9253342,674.2416,672.737,695.0406,371.46127,
1751473771.9292297,764.25256,910.2881,785.3171,1357.4224,
1751473771.9331255,793.7252,910.81915,809.2138,1450.0,
1751473771.9370210,711.32574,681.2336,739.20526,690.43823,
1751473771.9409165,609.54346,526.613,658.3989,0.0,
1751473771.9448123,606.4457,646.7161,681.0566,228.78899,
1751473771.9487078,674.77264,868.07056,779.7412,1238.8237,
1751473771.9526036,708.1395,890.7282,816.8254,1450.0,
1751473771.9564991,649.54834,685.3934,744.5157,827.8887,
1751473771.9603946,540.4199,507.8496,651.3184,0.0,
1751473771.9642904,504.39786,590.072,660.16907,101.42831,
1751473771.9681859,570.95465,833.02203,756.55255,1100.0458,
1751473771.9720814,633.9712,910.81915,804.7885,1450.0,
1751473771.9759772,589.18695,718.8488,749.118,966.4896,
1751473771.9798727,487.40463,507.67258,651.3184,6.814991,
1751473771.9837685,464.74698,556.70514,644.592,0.0,
1751473771.9876640,534.0475,793.01715,746.28577,952.0631,
1751473771.9915595,607.9503,904.18115,810.80695,1450.0,
1751473771.9954553,583.6996,758.41113,763.0135,1097.4791,
1751473771.9993508,488.11267,533.6935,674.77264,105.14558,
1751473772.0032463,451.117,529.6222,644.1494,0.0,
1751473772.0071421,524.04626,759.8273,720.3534,797.708,
1751473772.0110376,605.7377,910.1111,810.3644,1450.0,
1751473772.0149331,602.1974,790.8045,782.9274,1224.6627,
1751473772.0188289,533.2509,552.0143,679.46344,217.90271,
1751473772.0227244,492.4495,508.91168,647.42413,0.0,
1751473772.0266201,543.42914,722.03503,724.4247,649.2828,
1751473772.0305157,630.3424,905.6858,804.523,1450.0,
1751473772.0344112,654.5047,829.7473,790.539,1351.4039,
1751473772.0383070,586.26624,587.7709,697.5188,354.55655,
1751473772.0422025,523.69226,505.0174,645.56555,0.0,
1751473772.0460980,576.3535,707.7855,707.6085,512.4519,
1751473772.0499938,688.93365,911.08466,803.4609,1450.0,
1751473772.0538893,723.5397,855.9452,797.7965,1450.0,
1751473772.0577848,655.7438,619.0136,699.99695,498.29092,
1751473772.0616806,592.01917,505.72543,641.0517,0.0,
1751473772.0655761,629.01483,671.9404,690.6153,371.63828,
1751473772.0694718,738.67426,902.7651,779.21014,1361.9362,
1751473772.0733674,794.0792,898.2512,800.9827,1450.0,
1751473772.0772629,726.3718,672.20593,725.6638,649.81384,
1751473772.0811586,642.91034,517.5853,651.3184,0.0,
1751473772.0850542,664.41736,637.3344,682.38416,245.33968,
1751473772.0889497,759.9158,874.443,773.8998,1250.9491,
1751473772.0928454,818.5955,915.24445,810.71844,1450.0,
1751473772.0967410,781.1573,707.52,738.0547,812.3115,
1751473772.1006367,697.16473,529.6222,643.7069,0.0,
1751473772.1045322,690.7038,620.0757,657.6024,131.07794,
1751473772.1084278,769.74,857.44977,749.91455,1137.3955,
1751473772.1123235,831.60596,929.7595,804.877,1450.0,
1751473772.1162190,804.9655,743.5421,752.65826,961.7988,
1751473772.1201146,723.4511,540.3314,660.96564,0.0,
1751473772.1240103,703.62573,594.9399,661.23114,21.241531,
1751473772.1279058,774.78485,830.8094,754.25134,1000.83014,
1751473772.1318014,842.0497,939.0527,810.89545,1450.0,
1751473772.1356971,827.3576,783.8125,760.80084,1108.1884,
1751473772.1395926,744.7812,560.8649,658.6645,103.64097,
1751473772.1434884,704.24524,573.3443,640.8747,0.0,
1751473772.1473839,769.2089,799.4781,719.8224,861.07855,
1751473772.1512794,851.25433,941.3538,793.6367,1450.0,
1751473772.1551752,840.8106,819.7461,776.2894,1235.0181,
1751473772.1590707,752.2157,576.7961,684.68536,224.00964,
1751473772.1629663,697.34174,545.64185,645.2115,0.0,
1751473772.1668620,750.18005,762.3939,715.48553,725.9293,
1751473772.1707575,838.0669,922.14795,800.8057,1450.0,
1751473772.1746531,842.4037,840.8106,789.38837,1353.0856,
1751473772.1785488,757.8801,607.6848,694.067,370.5762,
1751473772.1824443,692.73944,530.59576,646.45056,0.0,
1751473772.1863401,736.37305,726.3718,707.25446,573.3443,
1751473772.1902356,833.5531,929.848,790.18494,1450.0,
1751473772.1941311,852.6705,881.87756,788.59186,1445.1322,
1751473772.1980269,772.39514,639.5471,705.4843,509.88525,
1751473772.2019224,699.0234,515.3726,655.0357,0.0,
1751473772.2058179,727.4339,692.91644,704.7763,425.27316,
1751473772.2097137,814.25867,920.4663,792.75165,1392.3823,
1751473772.2136092,844.0853,900.19836,806.4701,1450.0,
1751473772.2175050,775.05035,661.5852,720.79596,659.81506,
1751473772.2214005,692.2969,510.15076,636.18384,0.0,
1751473772.2252960,703.53723,645.477,676.7198,278.61807,
1751473772.2291918,794.8758,887.3649,783.547,1283.785,
1751473772.2330873,843.7313,920.0238,815.40924,1450.0,
1751473772.2369828,789.74243,703.18317,744.6927,794.7873,
1751473772.2408786,699.81995,528.8256,658.0449,0.0,
1751473772.2447741,687.7831,620.69525,667.1611,148.4252,
1751473772.2486696,779.12164,851.16583,762.1284,1158.3715,
1751473772.2525654,842.84625,924.2721,817.97595,1450.0,
1751473772.2564609,796.4689,739.11676,759.1192,927.9009,
1751473772.2603567,706.3694,538.2958,662.6473,0.0,
1751473772.2642522,687.3405,593.9663,657.9564,33.720932,
1751473772.2681477,762.3939,830.6324,748.587,1013.044,
1751473772.2720435,829.21625,944.6286,805.408,1450.0,
1751473772.2759390,805.408,781.68835,756.72955,1067.741,
1751473772.2798345,716.2821,546.7039,662.2047,78.06263,
1751473772.2837303,678.22437,565.5558,650.07935,0.0,
1751473772.2876258,747.25934,805.6736,739.29376,858.5119,
1751473772.2915213,828.4197,938.2561,817.62195,1450.0,
1751473772.2954171,813.90466,793.01715,781.4228,1205.2799,
1751473772.2993126,715.5741,558.4752,672.6485,199.40488,
1751473772.3032084,668.5772,549.62463,630.0769,0.0,
1751473772.3071039,727.52246,757.8801,704.5108,705.3073,
1751473772.3109994,808.32874,914.53644,797.885,1450.0,
1751473772.3148952,814.43567,833.19904,787.7068,1332.6405,
1751473772.3187907,724.60175,612.0216,695.74866,338.7139,
1751473772.3226862,659.107,552.89935,646.9816,0.0,
1751473772.3265820,704.7763,735.75354,704.7763,556.88214,
1751473772.3304775,792.3976,919.8468,790.27344,1450.0,
1751473772.3343730,813.63916,867.62805,794.7873,1431.6792,
1751473772.3382688,740.17883,628.04126,700.08545,475.72177,
1751473772.3421643,675.5692,512.0979,633.9712,0.0,
1751473772.3460600,705.1303,676.5428,691.9429,409.07648,
1751473772.3499556,783.724,890.19714,787.9723,1388.134,
1751473772.3538511,814.78973,886.30286,803.63794,1450.0,
1751473772.3577468,753.98584,676.9853,726.9914,619.8987,
1751473772.3616424,675.12665,532.8084,659.107,0.0,
1751473772.3655379,683.6233,657.8679,691.76587,275.7859,
1751473772.3694336,760.4468,881.258,779.6527,1280.5988,
1751473772.3733292,807.7092,906.83636,806.3816,1450.0,
1751473772.3772249,764.34106,700.43945,733.7179,768.23535,
1751473772.3811204,679.46344,517.31976,645.3885,0.0,
1751473772.3850160,680.083,615.9159,661.8507,153.73558,
1751473772.3889117,767.4388,858.24634,757.5261,1159.9646,
1751473772.3928072,820.71967,911.08466,808.5943,1450.0,
1751473772.3967028,773.8113,728.85004,750.44556,917.1031,
1751473772.4005985,680.7911,544.4027,665.3909,0.0,
1751473772.4044940,660.70013,609.2779,672.6485,43.633644,
1751473772.4083896,740.17883,841.3416,757.9686,1026.674,
1751473772.4122853,815.40924,923.1215,806.4701,1450.0,
1751473772.4161808,788.68036,765.7572,756.287,1062.342,
1751473772.4200766,684.86237,551.5718,664.15186,69.30049,
1751473772.4239721,643.9724,569.45,651.938,0.0,
1751473772.4278677,717.3442,798.239,737.0811,888.073,
1751473772.4317634,792.84015,927.9894,805.6736,1450.0,
1751473772.4356589,786.46765,806.0276,772.7492,1196.7832,
1751473772.4395545,710.4407,571.04315,674.68414,188.7841,
1751473772.4434502,658.3989,541.57056,637.2459,0.0,
1751473772.4473457,708.9361,767.2618,716.54767,741.772,
1751473772.4512413,795.58386,925.95374,798.9471,1450.0,
1751473772.4551370,805.6736,829.21625,778.50214,1322.1083,
1751473772.4590325,725.22125,600.42725,687.7831,327.6506,
1751473772.4629283,656.54034,536.0831,638.485,0.0,
1751473772.4668238,692.91644,734.69147,702.1211,598.83417,
1751473772.4707193,783.9895,918.7847,795.58386,1450.0,
1751473772.4746151,803.63794,861.43256,794.7873,1421.147,
1751473772.4785106,729.38104,636.6264,704.5993,465.63205,
1751473772.4824061,659.461,521.30255,642.4678,0.0,
1751473772.4863019,693.18195,685.3934,688.3141,453.94922,
1751473772.4901974,784.8746,913.4743,777.52856,1414.1549,
1751473772.4940932,811.24945,893.7374,791.1585,1450.0,
1751473772.4979887,742.126,660.78864,711.32574,609.89746,
1751473772.5018842,659.72656,526.613,643.17584,0.0,
1751473772.5057800,672.914,670.0818,680.5256,312.162,
1751473772.5096755,764.7836,890.28564,776.555,1309.8059,
1751473772.5135710,810.71844,901.88,806.2931,1450.0,
1751473772.5174668,756.55255,693.8015,729.8236,759.3847,
1751473772.5213623,669.1967,517.40826,647.1586,0.0,
1751473772.5252578,667.4266,612.7297,663.62085,178.42886,
1751473772.5291536,753.2778,849.3072,754.33984,1188.9946,
1751473772.5330491,810.54144,918.7847,796.11487,1450.0,
1751473772.5369449,771.15607,731.4167,740.44434,901.526,
1751473772.5408404,679.10944,544.8453,657.42535,0.0,
1751473772.5447359,666.276,618.5711,659.90356,64.60966,
1751473772.5486317,745.66626,843.7313,743.45355,1059.1559,
1751473772.5525272,804.6115,921.88245,795.2298,1450.0,
1751473772.5564227,781.86536,758.9422,757.08356,1042.7821,
1751473772.5603185,685.3049,552.98785,665.3024,52.661297,
1751473772.5642140,644.5035,577.2386,645.65405,0.0,
1751473772.5681095,718.6718,800.00916,727.61096,918.6962,
1751473772.5720053,793.6367,920.4663,795.4953,1450.0,
1751473772.5759008,786.46765,788.0608,759.65027,1172.09,
1751473772.5797966,709.90967,566.79486,661.05414,165.15291,
1751473772.5836921,661.5852,555.466,638.308,0.0,
1751473772.5875876,718.6718,775.49286,726.1063,764.25256,
1751473772.5914834,802.2218,931.70667,808.5943,1450.0,
1751473772.5953789,805.1425,835.2347,782.04236,1292.9011,
1751473772.5992744,721.94653,601.2238,680.5256,292.69058,
1751473772.6031702,653.79663,537.8533,634.67926,0.0,
1751473772.6070657,691.0578,730.0891,702.65216,610.78253,
1751473772.6109614,782.21936,911.9697,788.50336,1450.0,
1751473772.6148570,805.8506,853.90955,784.255,1396.8961,
1751473772.6187525,724.1592,631.84705,698.9349,424.7421,
1751473772.6226482,650.5219,532.36584,646.8046,0.0,
1751473772.6265438,684.2428,703.09467,697.6073,461.8263,
1751473772.6304393,774.2538,905.6858,781.77686,1424.9526,
1751473772.6343350,802.57587,876.39014,796.55743,1450.0,
1751473772.6382306,735.134,655.6553,715.7511,565.9098,
1751473772.6421261,655.8323,524.57733,637.6,0.0,
1751473772.6460218,675.7462,666.099,677.3393,316.5873,
1751473772.6499174,763.98706,884.1787,774.60785,1316.4438,
1751473772.6538131,803.4609,897.6317,795.4953,1450.0,
1751473772.6577086,742.126,684.86237,722.12354,710.0867,
1751473772.6616042,653.35406,521.47955,651.584,0.0,
1751473772.6654999,656.1863,632.5551,677.87036,185.24385,
1751473772.6693954,744.6927,862.9372,772.8377,1196.3407,
1751473772.6732910,798.6816,907.63293,810.4529,1450.0,
1751473772.6771867,752.56976,716.2821,734.2489,836.20825,
1751473772.6810822,673.0025,531.3038,642.3793,0.0,
1751473772.6849778,662.2932,606.4457,656.54034,75.23042,
1751473772.6888735,732.5673,842.66925,748.4099,1059.5099,
1751473772.6927691,796.4689,918.6077,803.72644,1450.0,
1751473772.6966648,764.5181,751.0651,760.3583,1001.09564,
1751473772.7005603,671.7634,554.581,664.6829,27.171457,
1751473772.7044559,641.3172,587.0628,650.9644,0.0,
1751473772.7083516,714.7775,813.3736,742.126,933.03424,
1751473772.7122471,791.1585,923.387,802.3988,1450.0,
1751473772.7161427,767.79285,782.13086,762.571,1140.4047,
1751473772.7200384,682.20715,561.21893,676.7198,137.89294,
1751473772.7239339,644.769,553.5189,648.66327,0.0,
1751473772.7278297,707.7855,779.5642,720.88446,787.6183,
1751473772.7317252,793.45966,927.3698,799.74365,1450.0,
1751473772.7356207,788.85736,823.2863,782.5734,1276.3505,
1751473772.7395165,696.8107,598.0376,688.3141,275.60886,
1751473772.7434120,634.1482,540.3314,644.8575,0.0,
1751473772.7473075,684.68536,740.6214,712.6534,627.4217,
1751473772.7512033,777.1745,917.98816,799.0356,1450.0,
1751473772.7550988,793.9022,844.2623,793.10565,1392.8248,
1751473772.7589943,713.80396,619.7217,701.9441,417.21906,
1751473772.7628901,644.4149,534.75555,648.2207,0.0,
1751473772.7667856,684.3313,709.3786,702.2096,515.1071,
1751473772.7706814,774.96185,901.43744,792.3091,1446.4597,
1751473772.7745769,804.6115,860.3705,795.93787,1450.0,
1751473772.7784724,737.0811,643.7954,708.7591,581.3984,
1751473772.7823682,652.55756,532.7199,649.54834,0.0,
1751473772.7862637,667.0726,679.37494,694.5096,362.52213,
1751473772.7901592,760.71234,886.12585,784.432,1348.6602,
1751473772.7940550,804.9655,893.11786,803.4609,1450.0,
1751473772.7979505,745.2237,690.1727,723.4511,726.0178,
1751473772.8018460,659.3725,535.46356,652.3805,0.0,
1751473772.8057418,667.4266,644.4149,679.37494,225.16023,
1751473772.8096373,753.4548,866.4774,765.6687,1237.4962,
1751473772.8135331,802.66437,900.72943,805.1425,1450.0,
1751473772.8174286,760.97784,699.90845,744.3386,853.82104,
1751473772.8213241,672.11743,527.58655,656.54034,0.0,
1751473772.8252199,654.9472,606.97675,666.099,105.94214,
1751473772.8291154,738.0547,838.86346,761.5974,1109.693,
1751473772.8330109,806.91266,928.0779,811.692,1450.0,
1751473772.8369067,772.8377,765.6687,756.3755,1015.6107,
1751473772.8408022,681.58765,559.0948,661.9392,25.755356,
1751473772.8446977,652.82306,582.46045,651.0529,1.416102,
1751473772.8485935,729.46954,803.81494,743.18805,982.68634,
1751473772.8524890,809.6564,924.53766,812.1345,1450.0,
1751473772.8563848,790.09644,783.10443,772.9262,1162.7968,
1751473772.8602803,693.8015,566.88336,681.3221,146.21254,
1751473772.8641758,655.1242,561.573,652.3805,0.0,
1751473772.8680716,721.85803,784.8746,721.504,851.07733,
1751473772.8719671,793.19415,931.88367,800.09766,1450.0,
1751473772.8758626,784.6976,819.3035,783.8125,1289.4495,
1751473772.8797584,702.0326,591.4881,692.82794,288.88483,
1751473772.8836539,648.57477,542.6326,654.23914,0.0,
1751473772.8875496,697.34174,749.0295,713.53845,704.42224,
1751473772.8914452,788.3263,924.89166,795.4068,1450.0,
1751473772.8953407,803.54944,845.0589,795.2298,1390.7007,
1751473772.8992364,723.0086,622.5539,708.405,433.2387,
1751473772.9031320,655.6553,546.5269,653.97363,0.0,
1751473772.9070275,694.067,725.7523,703.89124,551.1292,
1751473772.9109232,788.76886,914.0939,793.10565,1450.0,
1751473772.9148188,824.1714,867.1855,798.9471,1450.0,
1751473772.9187143,733.45233,645.123,716.9017,584.0536,
1751473772.9226100,639.6356,524.22327,650.6989,0.0,
1751473772.9265056,678.22437,677.51636,686.544,400.66837,
1751473772.9304013,777.3515,895.59607,776.2009,1374.5925,
1751473772.9342968,817.79895,893.02936,792.2206,1450.0,
1751473772.9381924,760.62384,686.898,714.7775,715.6626,
1751473772.9420881,684.50836,543.9602,633.8827,0.0,
1751473772.9459836,695.83716,658.3989,652.115,251.35811,
1751473772.9498792,787.9723,885.0638,748.764,1263.2516,
1751473772.9537749,843.37726,923.6526,783.8125,1450.0,
1751473772.9576705,793.01715,719.9994,713.3614,831.87146,
1751473772.9615660,714.42346,548.82806,630.6965,0.0,
1751473772.9654617,700.9705,632.11255,642.4678,125.85607,
1751473772.9693573,791.7781,863.73376,734.69147,1132.4391,
1751473772.9732530,857.80383,930.6446,788.0608,1450.0,
1751473772.9771485,817.79895,741.1524,730.3546,990.47485,
1751473772.9810441,733.7179,549.00507,633.7057,7.523042,
1751473772.9849398,699.90845,602.55145,626.9792,17.701275,
1751473772.9888353,775.6699,841.3416,714.06946,1004.9014,
1751473772.9927309,852.2279,952.4171,781.3343,1450.0,
1751473772.9966266,827.3576,788.1493,746.72833,1122.3494,
1751473773.0005221,738.67426,571.48566,649.2828,115.235306,
1751473773.0044179,702.3866,580.1593,629.01483,0.0,
1751473773.0083134,764.42957,800.6287,715.7511,855.6797,
1751473773.0122089,842.3152,946.4872,789.12286,1450.0,
1751473773.0161047,830.3668,833.19904,765.5802,1250.1526,
1751473773.0200002,740.35583,601.2238,672.11743,243.21553,
1751473773.0238957,685.92444,555.90857,631.139,0.0,
1751473773.0277915,739.02826,755.6675,704.6878,710.79474,
1751473773.0316870,822.48975,930.1135,780.8918,1450.0,
1751473773.0355825,826.1185,850.19226,766.0227,1361.9362,
1751473773.0394783,744.5157,614.32275,680.6141,383.40964,
1751473773.0433738,682.29565,542.89813,628.8378,0.0,
1751473773.0472696,716.9902,735.3995,689.19916,566.1753,
1751473773.0511651,802.75287,919.49274,782.39636,1450.0,
1751473773.0550606,818.5955,866.743,772.7492,1450.0,
1751473773.0589564,740.9754,643.6184,648.0437,537.0567,
1751473773.0628519,673.445,532.8084,554.6695,0.0,
1751473773.0667474,703.36017,695.3946,594.6744,419.78577,
1751473773.0706432,791.247,912.8548,685.74744,1386.9834,
1751473773.0745387,825.5875,900.10986,700.6165,1450.0,
1751473773.0784342,760.3583,680.9681,623.97,683.8888,
1751473773.0823300,681.67615,526.79,553.34186,0.0,
1751473773.0862255,689.02216,639.9896,582.28345,271.36057,
1751473773.0901213,770.448,870.63727,676.8968,1278.7401,
1751473773.0940168,821.78174,909.6686,713.3614,1450.0,
1751473773.0979123,770.1825,707.7855,643.7069,809.8334,
1751473773.1018081,680.9681,529.5337,563.52014,0.0,
1751473773.1057036,673.9761,623.4389,579.27423,131.25496,
1751473773.1095991,757.26056,866.0349,673.53357,1138.6345,
1751473773.1134949,823.1978,929.49396,724.69025,1450.0,
1751473773.1173904,779.5642,742.48,672.56,941.9734,
1751473773.1212862,684.77386,536.7027,588.2134,0.0,
1751473773.1251817,667.0726,578.12366,589.718,19.028872,
1751473773.1290772,740.26733,802.3103,683.0922,990.47485,
1751473773.1329730,807.35516,915.687,737.5237,1450.0,
1751473773.1368685,789.12286,780.6263,691.1463,1068.626,
1751473773.1407640,697.16473,553.34186,607.06525,84.6121,
1751473773.1446598,653.5311,561.573,597.3295,0.0,
1751473773.1485553,717.78674,804.7885,685.65894,824.4369,
1751473773.1524508,803.3724,948.1688,754.25134,1450.0,
1751473773.1563466,797.531,821.07367,724.60175,1195.5442,
1751473773.1602421,707.43146,576.442,634.2367,192.50137,
1751473773.1641378,653.5311,540.4199,603.702,0.0,
1751473773.1680334,704.7763,760.0928,681.58765,662.9128,
1751473773.1719289,788.85736,920.3778,758.9422,1450.0,
1751473773.1758246,796.55743,823.1093,744.7812,1311.3105,
1751473773.1797202,709.1131,604.23303,655.3012,307.47116,
1751473773.1836157,643.5299,538.56134,603.25946,0.0,
1751473773.1875114,687.6061,711.5028,664.5059,510.6818,
1751473773.1914070,774.78485,902.5881,751.7732,1450.0,
1751473773.1953025,794.1677,862.6717,747.6134,1421.0585,
1751473773.1991982,726.1948,627.0677,668.31165,439.9652,
1751473773.2030938,650.6989,526.4359,617.59753,0.0,
1751473773.2069895,671.6749,690.9693,661.9392,370.04517,
1751473773.2108850,766.9963,898.2512,756.99506,1369.2822,
1751473773.2147806,802.57587,891.4362,777.88257,1450.0,
1751473773.2186763,741.0639,665.745,698.4923,581.57544,
1751473773.2225718,655.6553,517.31976,627.95276,0.0,
1751473773.2264674,664.9484,648.4862,655.9208,239.14424,
1751473773.2303631,757.08356,869.5752,744.8697,1247.5859,
1751473773.2342587,802.4873,893.20636,770.0055,1450.0,
1751473773.2381542,749.295,695.3946,697.16473,737.5237,
1751473773.2420499,663.1783,530.0647,626.8907,0.0,
1751473773.2459455,655.8323,619.3676,655.0357,127.00665,
1751473773.2498412,729.9121,851.43134,745.84326,1121.0219,
1751473773.2537367,793.9022,919.5813,791.1585,1450.0,
1751473773.2576323,763.102,735.84204,738.4972,900.46387,
1751473773.2615280,671.5864,539.8889,648.3977,0.0,
1751473773.2654235,648.8403,591.3996,646.5391,27.61399,
1751473773.2693191,724.95575,812.8426,734.0719,992.1565,
1751473773.2732148,794.6988,920.3778,787.8838,1450.0,
1751473773.2771103,771.24457,777.97107,740.6214,1049.0662,
1751473773.2810061,686.18994,556.97064,646.18506,67.441864,
1751473773.2849016,652.82306,564.13965,637.3344,0.0,
1751473773.2887971,716.63617,792.3091,729.8236,851.34283,
1751473773.2926929,793.10565,926.6618,795.0528,1450.0,
1751473773.2965884,779.12164,802.2218,766.3767,1196.6947,
1751473773.3004839,686.721,571.48566,679.28644,187.81053,
1751473773.3043797,637.954,551.7488,638.92755,0.0,
1751473773.3082752,699.1119,775.13885,702.2096,726.1948,
1751473773.3121707,783.6355,929.31696,785.0516,1450.0,
1751473773.3160665,787.9723,825.05646,777.263,1329.4543,
1751473773.3199620,706.0154,603.34796,687.8716,335.43918,
1751473773.3238578,648.3977,546.5269,633.8827,0.0,
1751473773.3277533,690.6153,723.3626,692.1199,589.718,
1751473773.3316488,775.13885,904.18115,784.7861,1450.0,
1751473773.3355446,798.062,862.0521,793.10565,1430.6171,
1751473773.3394401,721.681,640.5207,705.0418,483.77588,
1751473773.3433356,652.292,529.7992,639.45856,0.0,
1751473773.3472314,683.9773,688.66815,689.9072,443.32846,
1751473773.3511269,771.15607,902.6766,777.263,1404.3307,
1751473773.3550224,800.6287,892.85236,791.424,1450.0,
1751473773.3589182,734.2489,670.3473,713.2729,637.4229,
1751473773.3628137,654.23914,527.144,647.24713,0.0,
1751473773.3667095,663.4438,651.4954,681.4106,297.0274,
1751473773.3706050,751.0651,872.49585,772.6607,1298.0345,
1751473773.3745005,797.26544,900.6409,800.45166,1450.0,
1751473773.3783963,748.3214,692.1199,723.6282,780.1837,
1751473773.3822918,666.453,520.329,642.73334,0.0,
1751473773.3861873,660.25757,631.139,665.3024,163.20576,
1751473773.3900831,742.303,873.558,764.5181,1174.7451,
1751473773.3939786,794.3447,918.6962,811.42645,1450.0,
1751473773.3978744,756.99506,726.8144,747.5249,909.6686,
1751473773.4017699,674.68414,539.35785,652.64606,0.0,
1751473773.4056654,650.43335,598.74567,654.41614,50.183117,
1751473773.4095612,725.22125,831.0749,745.4892,1037.3833,
1751473773.4134567,794.1677,915.42145,802.57587,1450.0,
1751473773.4173522,765.04913,752.2157,756.287,1047.5615,
1751473773.4212480,678.13586,552.1913,666.0105,63.01654,
1751473773.4251435,650.07935,586.26624,647.1586,0.0,
1751473773.4290390,713.4499,807.26666,726.7259,878.86835,
1751473773.4329348,787.6183,921.4399,802.0448,1450.0,
1751473773.4368303,779.47565,796.99994,772.21814,1178.0199,
1751473773.4407260,691.3233,572.9018,674.2416,172.58743,
1751473773.4446216,643.7069,544.3142,640.0781,0.0,
1751473773.4485171,701.9441,764.6951,714.7775,733.9834,
1751473773.4524128,791.8666,929.7595,798.5046,1450.0,
1751473773.4563084,787.6183,828.3312,784.6976,1310.9564,
1751473773.4602039,696.36816,585.5582,691.8544,311.54245,
1751473773.4640996,643.5299,514.48755,640.2551,0.0,
1751473773.4679952,692.91644,721.681,705.3073,600.6928,
1751473773.4718907,780.2722,924.89166,795.0528,1450.0,
1751473773.4757864,800.7172,873.2924,785.4941,1418.3147,
1751473773.4796820,726.9029,640.7862,700.705,460.6757,
1751473773.4835777,653.88513,530.94977,644.5035,0.0,
1751473773.4874732,683.3577,694.7751,693.6245,456.78143,
1751473773.4913688,777.3515,906.83636,788.50336,1416.633,
1751473773.4952645,815.9403,884.8868,804.7885,1450.0,
1751473773.4991601,743.6306,657.24835,721.23846,603.879,
1751473773.5030556,658.4874,515.6382,648.9288,0.0,
1751473773.5069513,682.6497,649.2828,683.2692,312.95856,
1751473773.5108469,771.51013,890.28564,784.8746,1311.753,
1751473773.5147426,782.30786,907.63293,816.2058,1450.0,
1751473773.5186381,713.53845,686.898,737.3466,742.65704,
1751473773.5225337,639.37006,523.4267,656.98285,0.0,
1751473773.5264294,625.6516,617.24347,676.8083,170.28627,
1751473773.5303249,703.62573,840.8106,769.917,1178.9049,
1751473773.5342205,757.6146,900.99493,821.2507,1450.0,
1751473773.5381162,708.051,706.72345,760.3583,874.53156,
1751473773.5420117,619.7217,511.9209,672.8255,0.0,
1751473773.5459073,585.91223,578.38916,685.92444,53.369347,
1751473773.5498030,659.72656,813.99316,772.48364,1032.6924,
1751473773.5536985,738.3202,898.6053,820.98517,1450.0,
1751473773.5575943,699.1119,733.2753,771.68713,1003.83936,
1751473773.5614898,610.95953,534.136,681.4991,39.208324,
1751473773.5653853,595.1169,549.62463,665.2139,0.0,
1751473773.5692811,664.6829,772.7492,743.7191,877.7178,
1751473773.5731766,737.8777,900.90643,812.7541,1450.0,
1751473773.5770721,730.7087,767.70435,780.9803,1150.6714,
1751473773.5809679,655.7438,563.52014,683.5348,149.75279,
1751473773.5848634,614.32275,545.4648,650.6989,0.0,
1751473773.5887589,673.268,760.53534,728.14197,737.7007,
1751473773.5926547,756.11,925.77673,810.89545,1450.0,
1751473773.5965502,762.3054,815.9403,794.5218,1279.0057,
1751473773.6004460,686.36694,586.35474,697.25323,274.90082,
1751473773.6043415,622.0228,530.94977,655.1242,0.0,
1751473773.6082370,664.24036,722.5661,714.7775,594.4088,
1751473773.6121328,758.49963,902.6766,794.6988,1450.0,
1751473773.6160283,772.5722,841.2531,792.66315,1394.3295,
1751473773.6199238,697.16473,619.1906,705.4843,416.59952,
1751473773.6238196,630.8735,521.5681,648.3092,0.0,
1751473773.6277151,666.3645,690.34973,700.528,447.8423,
1751473773.6316109,756.90656,896.4811,788.76886,1417.6067,
1751473773.6355064,783.36993,870.9028,797.08844,1450.0,
1751473773.6394019,720.97296,650.8759,713.80396,564.40515,
1751473773.6432977,646.7161,522.2761,648.57477,0.0,
1751473773.6471932,662.3817,668.13464,690.7923,319.41953,
1751473773.6510887,756.287,892.76385,783.36993,1315.6473,
1751473773.6549845,801.0712,907.54443,803.1069,1450.0,
1751473773.6588800,742.83405,695.57166,725.39825,728.93854,
1751473773.6627755,660.52313,534.93256,640.6092,0.0,
1751473773.6666713,656.54034,635.74133,662.6473,189.66917,
1751473773.6705668,744.7812,856.65326,767.61584,1199.527,
1751473773.6744626,803.72644,898.8708,817.62195,1450.0,
1751473773.6783581,756.72955,711.32574,758.1456,871.1683,
1751473773.6822536,670.87836,531.92334,669.5508,0.0,
1751473773.6861494,659.1955,608.3043,666.54156,80.098274,
1751473773.6900449,740.09033,847.8026,757.8801,1074.8214,
1751473773.6939404,807.00116,924.2721,814.34717,1450.0,
1751473773.6978362,775.05035,751.9502,757.34906,1035.1707,
1751473773.7017317,685.83594,561.6615,663.1783,41.06696,
1751473773.7056272,659.90356,589.36395,656.54034,0.0,
1751473773.7095230,731.77075,805.6736,747.43634,959.2321,
1751473773.7134185,805.3195,931.0871,814.08167,1450.0,
1751473773.7173142,784.9631,792.3091,784.7861,1186.1625,
1751473773.7212098,691.58887,566.2638,695.66016,169.40121,
1751473773.7251053,652.469,563.60864,670.78986,0.0,
1751473773.7290010,717.0787,785.2286,740.35583,827.2691,
1751473773.7328966,803.0184,932.59174,806.3816,1450.0,
1751473773.7367921,797.08844,822.8438,778.0596,1303.168,
1751473773.7406878,705.4843,591.84216,681.85315,305.61252,
1751473773.7445834,647.1586,542.6326,647.1586,0.0,
1751473773.7484789,695.3946,744.2501,717.69824,680.8796,
1751473773.7523746,790.27344,924.53766,806.55865,1450.0,
1751473773.7562702,809.2138,858.33484,801.5138,1384.4167,
1751473773.7601659,724.2477,622.8194,705.3073,418.28116,
1751473773.7640615,657.6909,532.6314,649.0173,0.0,
1751473773.7679570,690.6153,702.56366,710.1752,516.2577,
1751473773.7718527,781.3343,902.7651,796.73444,1447.7874,
1751473773.7757483,814.34717,881.3465,800.8057,1450.0,
1751473773.7796438,739.5593,657.15985,716.1051,574.14087,
1751473773.7835395,660.87714,529.1796,647.5127,0.0,
1751473773.7874351,677.69336,678.84393,686.6325,347.56454,
1751473773.7913308,762.748,895.8616,776.9975,1342.6417,
1751473773.7952263,802.2218,898.5168,803.0184,1450.0,
1751473773.7991219,745.0467,679.37494,731.94775,694.9521,
1751473773.8030176,658.753,515.3726,648.2207,0.0,
1751473773.8069131,659.107,635.03326,672.11743,202.06006,
1751473773.8108087,753.72034,868.15906,770.3595,1210.5017,
1751473773.8147044,809.2138,909.6686,804.9655,1450.0,
1751473773.8185999,760.3583,721.32697,732.30176,837.1818,
1751473773.8224955,670.1703,539.9774,652.73456,0.0,
1751473773.8263912,657.7794,605.9147,667.60364,94.4363,
1751473773.8302867,743.18805,832.22546,757.7916,1089.5135,
1751473773.8341825,809.2138,924.0066,810.2759,1450.0,
1751473773.8380780,773.7228,759.2962,755.3134,990.8289,
1751473773.8419735,685.2164,554.2269,659.54956,18.58634,
1751473773.8458693,649.3713,589.541,657.6909,0.0,
1751473773.8497648,720.3534,808.9483,750.26855,952.1516,
1751473773.8536603,797.708,915.15594,810.54144,1450.0,
1751473773.8575561,778.4136,777.1745,770.80206,1126.5092,
1751473773.8614516,690.0842,568.12244,676.8083,125.76756,
1751473773.8653471,646.7161,558.3867,648.9288,0.0,
1751473773.8692429,716.9017,774.0768,722.8316,801.1597,
1751473773.8731384,796.02637,925.33417,794.2562,1450.0,
1751473773.8770342,787.4412,818.32996,772.21814,1249.0021,
1751473773.8809297,706.0154,593.8778,679.9945,242.41898,
1751473773.8848252,640.9632,544.7568,648.0437,0.0,
1751473773.8887210,687.429,742.2145,724.4247,659.284,
1751473773.8926165,780.2722,918.8732,804.16895,1450.0,
1751473773.8965120,788.94586,851.43134,788.50336,1368.7511,
1751473773.9004078,704.8648,612.0216,694.5981,386.15332,
1751473773.9043033,647.7782,521.7451,642.99884,0.0,
1751473773.9081991,693.713,718.31775,705.5729,521.47955,
1751473773.9120946,776.909,924.62616,794.9643,1450.0,
1751473773.9159901,800.7172,884.5328,805.7621,1450.0,
1751473773.9198859,733.36383,643.9724,725.7523,552.3683,
1751473773.9237814,654.15063,513.2485,657.6024,0.0,
1751473773.9276769,678.04736,677.51636,696.19116,394.29593,
1751473773.9315727,770.0055,901.26044,791.6896,1366.1844,
1751473773.9354682,807.17816,896.3041,816.4713,1450.0,
1751473773.9393637,742.65704,682.03015,737.4351,726.6374,
1751473773.9432595,657.07135,540.2429,659.284,0.0,
1751473773.9471550,670.78986,658.576,681.85315,268.43985,
1751473773.9510508,757.9686,877.7178,768.6779,1273.6953,
1751473773.9549463,809.4793,909.7571,808.32874,1450.0,
1751473773.9588418,769.74,712.2993,750.7996,879.7534,
1751473773.9627376,672.47144,527.2325,669.5508,0.0,
1751473773.9666331,652.73456,606.88824,678.31287,133.37912,
1751473773.9705286,734.3374,850.28076,767.52734,1151.5565,
1751473773.9744244,797.26544,922.05945,821.51624,1450.0,
1751473773.9783199,763.89856,753.63184,766.9078,1013.9291,
1751473773.9822154,680.7911,554.581,668.9312,18.232313,
1751473773.9861112,655.9208,589.9835,658.753,15.842642,
1751473773.9900067,729.38104,822.5783,745.57776,1010.91986,
1751473773.9939024,803.72644,921.70544,811.7805,1450.0,
1751473773.9977980,776.46643,776.46643,773.0147,1136.7759,
1751473774.0016935,683.0037,567.23737,684.0658,125.85607,
1751473774.0055892,641.4942,567.76843,664.32886,0.0,
1751473774.0094848,704.15674,792.4861,739.7363,858.9544,
1751473774.0133803,778.3251,937.017,815.05524,1450.0,
1751473774.0172760,774.1653,814.17017,788.50336,1249.0906,
1751473774.0211716,692.82794,579.9823,684.95087,245.42819,
1751473774.0250673,644.946,534.0475,651.4069,0.0,
1751473774.0289629,691.67737,733.0983,724.95575,690.8808,
1751473774.0328584,760.53534,911.08466,805.7621,1450.0,
1751473774.0367541,767.1733,846.0325,802.3103,1352.289,
1751473774.0406497,682.03015,615.9159,706.1924,367.38998,
1751473774.0445452,606.71124,534.57855,648.66327,0.0,
1751473774.0484409,637.6885,720.61896,714.42346,529.6222,
1751473774.0523365,722.38904,915.5985,802.66437,1450.0,
1751473774.0562320,737.2581,862.8487,800.00916,1441.7689,
1751473774.0601277,658.93,630.3424,718.5833,489.17474,
1751473774.0640233,563.0776,513.2485,666.9841,0.0,
1751473774.0679190,568.03394,655.7438,714.512,358.27383,
1751473774.0718145,656.80585,865.23834,802.2218,1358.3074,
1751473774.0757101,677.1623,856.1222,816.4713,1450.0,
1751473774.0796058,598.83417,634.67926,733.7179,613.4377,
1751473774.0835013,510.15076,499.97253,661.05414,0.0,
1751473774.0873969,509.88525,643.17584,694.244,228.70049,
1751473774.0912926,589.18695,874.1775,794.0792,1235.6376,
1751473774.0951881,629.36884,882.76263,829.03925,1450.0,
1751473774.0990837,569.8926,674.94965,752.3042,776.46643,
1751473774.1029794,486.43106,513.0715,667.2496,0.0,
1751473774.1068749,485.6345,600.5158,685.74744,132.05151,
1751473774.1107707,572.5478,832.22546,786.46765,1129.0759,
1751473774.1146662,643.7954,902.6766,842.4037,1450.0,
1751473774.1185617,605.2066,710.88324,777.61707,976.31384,
1751473774.1224575,515.5497,516.61176,683.4462,0.0,
1751473774.1263530,505.90247,583.5226,683.2692,46.64286,
1751473774.1302485,594.9399,826.9151,766.0227,1051.8098,
1751473774.1341443,669.5508,938.52167,823.2863,1450.0,
1751473774.1380398,648.0437,778.0596,783.36993,1174.7451,
1751473774.1419353,575.20294,563.2546,701.6786,135.14925,
1751473774.1458311,553.5189,574.4949,680.7026,0.0,
1751473774.1497266,618.5711,793.19415,756.287,966.8437,
1751473774.1536224,707.874,925.86523,832.13696,1450.0,
1751473774.1575179,716.7247,807.26666,804.9655,1313.8772,
1751473774.1614134,642.73334,593.5238,712.2993,302.95734,
1751473774.1653092,603.702,554.758,670.96686,0.0,
1751473774.1692047,670.78986,758.8537,732.12476,856.0337,
1751473774.1731002,773.1917,937.9906,809.0368,1450.0,
1751473774.1769960,790.09644,853.2015,805.408,1415.6595,
1751473774.1808915,716.9017,619.7217,719.3798,483.1563,
1751473774.1847873,668.04614,553.9614,660.70013,0.0,
1751473774.1886828,717.3442,747.7904,726.6374,745.3122,
1751473774.1925783,806.64716,936.5745,815.05524,1450.0,
1751473774.1964741,833.37604,884.1787,810.2759,1450.0,
1751473774.2003696,769.74,656.3633,723.9822,678.48987,
1751473774.2042651,700.35095,547.5005,664.8599,0.0,
1751473774.2081609,732.39026,713.3614,710.0867,588.3904,
1751473774.2120564,824.61395,921.4399,793.9907,1450.0,
1751473774.2159519,866.0349,896.74664,812.046,1450.0,
1751473774.2198477,808.24023,687.6946,733.5409,860.0165,
1751473774.2237432,730.8857,556.97064,659.1955,0.0,
1751473774.2276390,745.4007,681.2336,696.7222,418.8122,
1751473774.2315345,833.9071,903.82715,792.57465,1386.8064,
1751473774.2354300,881.52356,925.95374,819.215,1450.0,
1751473774.2393258,823.5519,725.5753,741.595,993.04156,
1751473774.2432213,740.09033,564.7592,653.7081,0.0,
1751473774.2471168,740.35583,657.07135,676.6313,251.00409,
1751473774.2510126,823.9059,882.67413,779.29865,1293.6093,
1751473774.2549081,881.435,943.655,825.49896,1450.0,
1751473774.2588036,841.2531,749.472,766.9078,1115.6229,
1751473774.2626994,748.8525,551.3062,673.3565,35.22554,
1751473774.2665949,728.14197,610.42847,669.8163,94.79033,
1751473774.2704906,803.4609,842.75775,763.456,1170.9393,
1751473774.2743862,872.23035,947.10675,823.7289,1450.0,
1751473774.2782817,851.9624,795.3183,777.086,1218.8213,
1751473774.2821774,762.4824,576.7961,675.03815,159.31148,
1751473774.2860730,721.23846,595.1169,653.6196,0.0,
1751473774.2899685,787.0872,819.8346,748.6755,1032.6924,
1751473774.2938643,869.39813,937.5481,826.7381,1450.0,
1751473774.2977598,859.0429,814.87823,792.4861,1299.9817,
1751473774.3016555,761.15485,595.2939,693.00494,288.88483,
1751473774.3055511,704.5993,559.71436,656.3633,0.0,
1751473774.3094466,770.53656,764.96063,731.77075,855.5912,
1751473774.3133423,856.65326,928.0779,810.54144,1450.0,
1751473774.3172379,852.1394,834.7922,789.5654,1373.973,
1751473774.3211334,766.8193,594.0548,690.2612,416.51102,
1751473774.3250291,703.71423,531.2153,638.83905,0.0,
1751473774.3289247,745.57776,741.595,703.71423,676.1002,
1751473774.3328202,832.84503,927.9894,795.0528,1450.0,
1751473774.3367159,853.29,862.6717,801.8678,1441.9459,
1751473774.3406115,777.52856,630.8735,722.12354,538.3843,
1751473774.3445072,699.81995,519.5325,661.49664,0.0,
1751473774.3484027,725.13275,685.65894,703.71423,482.35977,
1751473774.3522983,814.61273,901.526,788.85736,1421.324,
1751473774.3561940,845.4129,885.86035,797.531,1450.0,
1751473774.3600895,777.61707,659.461,722.21204,671.32086,
1751473774.3639851,700.08545,530.59576,656.80585,0.0,
1751473774.3678808,709.99817,664.24036,681.58765,329.2437,
1751473774.3717763,797.6195,874.443,773.8998,1322.7278,
1751473774.3756719,844.7934,904.6237,818.861,1450.0,
1751473774.3795676,789.38837,703.18317,752.92377,807.7092,
1751473774.3834631,704.06824,532.18884,663.4438,0.0,
1751473774.3873589,694.421,629.36884,679.02094,192.58987,
1751473774.3912544,773.2802,857.00726,776.6435,1207.3156,
1751473774.3951499,838.86346,915.7755,820.54266,1450.0,
1751473774.3990457,798.5046,734.86847,752.3927,963.6575,
1751473774.4029412,710.70624,543.07513,657.6909,0.0,
1751473774.4068367,697.43024,594.8514,660.96564,74.16834,
1751473774.4107325,771.33307,825.853,751.1536,1091.2837,
1751473774.4146280,838.50946,926.9273,807.6207,1450.0,
1751473774.4185238,811.07245,770.71356,766.6423,1118.1011,
1751473774.4224193,719.4683,563.1661,678.48987,90.276505,
1751473774.4263148,685.83594,584.4961,665.47943,0.0,
1751473774.4302106,749.472,804.34595,753.98584,970.915,
1751473774.4341061,822.22424,919.49274,817.71045,1450.0,
1751473774.4380016,808.5943,800.9827,777.263,1223.7777,
1751473774.4418974,718.9373,592.28467,684.95087,209.5831,
1751473774.4457929,669.4622,564.05115,646.9816,0.0,
1751473774.4496884,727.96497,768.6779,709.4671,816.1173,
1751473774.4535842,814.34717,930.202,795.0528,1450.0,
1751473774.4574797,815.5863,836.11975,788.85736,1339.8096,
1751473774.4613755,729.11554,604.056,698.6694,357.12323,
1751473774.4652710,667.0726,536.17163,656.71735,0.0,
1751473774.4691665,710.88324,726.0178,719.2028,663.4438,
1751473774.4730623,799.3896,919.22723,799.65515,1450.0,
1751473774.4769578,813.99316,863.55676,795.1413,1425.0413,
1751473774.4808533,736.6386,632.46655,707.874,495.10468,
1751473774.4847491,666.1875,533.8705,648.3977,0.0,
1751473774.4886446,696.10266,697.6958,697.6958,477.4919,
1751473774.4925401,788.1493,900.37537,787.2642,1432.2102,
1751473774.4964359,814.17017,865.06134,792.2206,1450.0,
1751473774.5003314,745.0467,637.2459,710.52924,582.28345,
1751473774.5042272,669.9048,525.37384,641.84827,0.0,
1751473774.5081227,684.1543,668.7542,675.39215,263.12946,
1751473774.5120182,766.5538,877.4522,773.4572,1291.3966,
1751473774.5159140,809.4793,884.9753,801.2482,1450.0,
1751473774.5198095,754.6054,672.737,715.7511,612.5527,
1751473774.5237050,668.8427,502.3622,630.2539,0.0,
1751473774.5276008,665.3024,607.9503,651.761,84.966125,
1751473774.5314963,743.18805,836.29675,751.8617,1071.7238,
1751473774.5353920,801.7793,879.6649,793.28265,1450.0,
1751473774.5392876,753.80884,695.92566,725.8408,664.7714,
1751473774.5431831,660.78864,510.6818,639.5471,0.0,
1751473774.5470788,645.74255,566.4408,640.9632,0.0,
1751473774.5509744,720.97296,806.55865,732.6558,854.26355,
1751473774.5548699,789.21136,900.19836,789.38837,1450.0,
1751473774.5587656,760.80084,729.46954,738.76276,780.5378,
1751473774.5626612,669.5508,521.47955,645.3885,0.0,
1751473774.5665567,637.2459,548.82806,632.37805,0.0,
1751473774.5704525,706.0154,778.3251,718.8488,662.5588,
1751473774.5743480,783.36993,892.67535,788.1493,1450.0,
1751473774.5782437,767.2618,748.941,751.8617,951.08954,
1751473774.5821393,679.19794,534.49,658.2219,31.862297,
1751473774.5860348,631.316,529.3566,629.45734,0.0,
1751473774.5899305,688.4026,748.4099,703.09467,512.983,
1751473774.5938261,774.0768,894.6225,778.3251,1450.0,
1751473774.5977216,772.7492,794.7873,756.0215,1114.2953,
1751473774.6016173,687.6061,572.9018,659.284,105.58811,
1751473774.6055129,632.9091,521.03705,623.97,0.0,
1751473774.6094084,683.1807,721.14996,693.44745,378.9843,
1751473774.6133041,770.271,897.8972,770.71356,1450.0,
1751473774.6171997,784.6976,826.7381,765.7572,1272.8987,
1751473774.6210954,703.89124,594.8514,685.83594,202.32558,
1751473774.6249909,630.5195,503.6013,633.1746,0.0,
1751473774.6288865,665.47943,677.4278,687.6946,253.57077,
1751473774.6327822,759.4732,875.5936,777.086,1342.7302,
1751473774.6366777,785.4941,839.3945,783.547,1409.2871,
1751473774.6405733,711.9453,616.0929,696.36816,313.3126,
1751473774.6444690,641.0517,494.30814,627.95276,0.0,
1751473774.6483645,657.07135,649.63684,654.06213,148.86772,
1751473774.6522601,736.37305,877.5408,737.3466,1190.4993,
1751473774.6561558,781.3343,869.9292,779.38715,1450.0,
1751473774.6600513,727.4339,657.8679,718.49475,453.06415,
1751473774.6639471,641.75977,500.23804,636.09534,0.0,
1751473774.6678426,641.1402,611.5791,656.98285,68.41543,
1751473774.6717381,727.69946,851.8739,753.54333,1032.3384,
1751473774.6756339,786.11365,890.8167,787.6183,1450.0,
1751473774.6795294,743.18805,694.067,722.38904,609.80896,
1751473774.6834249,655.2127,512.71747,638.2195,0.0,
1751473774.6873207,640.8747,591.3996,645.123,2.3896723,
1751473774.6912162,719.5569,825.853,733.0098,867.62805,
1751473774.6951120,787.5298,903.91565,786.9102,1450.0,
1751473774.6990075,761.5089,738.85126,738.58575,777.61707,
1751473774.7029030,666.54156,529.4451,647.0701,0.0,
1751473774.7067988,633.1746,550.24414,641.3172,0.0,
1751473774.7106943,704.7763,785.4056,726.2833,715.48553,
1751473774.7145898,781.3343,905.5088,781.68835,1450.0,
1751473774.7184856,766.0227,766.2882,747.7904,964.1,
1751473774.7223811,675.8347,552.1913,661.49664,38.146248,
1751473774.7262766,630.8735,548.73956,640.0781,0.0,
1751473774.7301724,696.01416,773.8113,723.5397,584.4076,
1751473774.7340679,779.9182,921.97095,803.72644,1450.0,
1751473774.7379637,777.79407,809.0368,772.5722,1143.945,
1751473774.7418592,691.2348,587.5054,673.1795,134.97223,
1751473774.7457547,630.1654,539.8004,637.4229,0.0,
1751473774.7496505,682.9152,737.9662,700.6165,480.41263,
1751473774.7535460,775.8469,913.73987,779.9182,1450.0,
1751473774.7574415,791.5126,839.30597,774.0768,1322.3738,
1751473774.7613373,709.82117,603.08246,686.36694,284.10547,
1751473774.7652328,639.7241,505.45993,632.37805,0.0,
1751473774.7691283,673.3565,684.4198,685.57043,385.44528,
1751473774.7730241,761.33185,903.73865,777.70557,1407.9595,
1751473774.7769196,788.68036,887.6305,789.38837,1446.5482,
1751473774.7808154,718.40625,660.78864,712.4763,436.33646,
1751473774.7847109,643.35284,535.7291,655.4782,0.0,
1751473774.7886064,663.88635,686.544,694.3325,274.54678,
1751473774.7925022,750.6226,894.09143,776.9975,1294.4058,
1751473774.7963977,787.4412,887.2764,796.20337,1450.0,
1751473774.8002932,728.76154,675.03815,723.8937,597.064,
1751473774.8041890,649.90234,512.3634,649.81384,0.0,
1751473774.8080845,658.576,624.147,674.3301,168.60464,
1751473774.8119802,747.7019,861.07855,762.2169,1171.205,
1751473774.8158758,799.92065,903.2076,804.08044,1450.0,
1751473774.8197713,754.5169,707.34296,741.4179,754.25134,
1751473774.8236670,670.2588,528.29456,657.5139,0.0,
1751473774.8275626,660.4346,614.6768,669.1082,62.662518,
1751473774.8314581,735.134,847.36005,754.8709,1023.1337,
1751473774.8353539,798.239,932.4147,807.35516,1450.0,
1751473774.8392494,766.0227,750.18005,755.579,911.9697,
1751473774.8431449,670.78986,533.782,664.5944,0.0,
1751473774.8470407,640.6092,581.0444,652.82306,0.0,
1751473774.8509362,717.52124,818.32996,730.3546,881.61206,
1751473774.8548319,800.8942,936.84,797.7965,1450.0,
1751473774.8587275,779.47565,791.424,765.49164,1074.0249,
1751473774.8626230,686.18994,559.3603,677.95886,94.3478,
1751473774.8665187,646.45056,553.6074,650.9644,0.0,
1751473774.8704143,710.4407,778.4136,727.0799,734.4259,
1751473774.8743098,787.3527,919.13873,807.08966,1450.0,
1751473774.8782055,777.3515,813.1081,779.12164,1209.4397,
1751473774.8821011,695.74866,592.19617,683.6233,202.76811,
1751473774.8859966,644.1494,548.474,638.66205,0.0,
1751473774.8898923,698.0498,746.19727,706.3694,591.75366,
1751473774.8937879,783.8125,921.79395,791.3355,1450.0,
1751473774.8976836,791.1585,849.57275,813.4621,1339.8096,
1751473774.9015791,711.32574,618.12854,780.9803,331.81042,
1751473774.9054747,644.2379,529.7107,758.5882,0.0,
1751473774.9093704,682.11865,702.2981,828.2427,454.03772,
1751473774.9132659,773.1917,902.5881,922.679,1436.4585,
1751473774.9171615,798.3275,879.8419,927.3698,1450.0,
1751473774.9210572,726.3718,648.4862,834.2611,477.22638,
1751473774.9249527,650.5219,524.4888,765.9342,0.0,
1751473774.9288485,674.4186,685.83594,812.4,325.792,
1751473774.9327440,763.1905,888.51556,905.5088,1332.021,
1751473774.9366395,805.8506,880.1074,926.5733,1450.0,
1751473774.9405353,749.56055,681.67615,841.9612,625.8286,
1751473774.9444308,664.7714,537.6763,755.0479,0.0,
1751473774.9483263,660.4346,648.0437,783.36993,200.02441,
1751473774.9522221,741.6835,873.2924,874.97406,1205.6339,
1751473774.9561176,797.708,914.53644,904.26965,1450.0,
1751473774.9600132,750.7111,719.6454,834.5267,781.68835,
1751473774.9639089,660.34607,535.19806,747.34784,0.0,
1751473774.9678044,646.5391,601.1353,753.54333,88.32937,
1751473774.9717002,729.7351,822.7553,834.9692,1070.3076,
1751473774.9755957,795.76086,909.8456,883.5592,1450.0,
1751473774.9794912,754.5169,753.2778,832.75653,938.61017,
1751473774.9833870,666.63007,548.73956,738.76276,0.0,
1751473774.9872825,645.0345,593.25824,726.1063,0.0,
1751473774.9911780,719.4683,824.79095,806.91266,934.4503,
1751473774.9950738,791.3355,926.6618,868.42456,1450.0,
1751473774.9989693,771.24457,780.9803,824.3484,1107.5688,
1751473775.0028648,684.3313,554.2269,728.319,111.783554,
1751473775.0067606,640.6977,546.7924,702.65216,0.0,
1751473775.0106561,703.18317,779.12164,780.8033,795.58386,
1751473775.0145519,785.4941,924.0951,853.0245,1450.0,
1751473775.0184474,779.03314,814.34717,824.61395,1220.3259,
1751473775.0223429,692.73944,595.73645,733.8064,214.36244,
1751473775.0262387,633.8827,551.3947,691.3233,0.0,
1751473775.0301342,681.4106,750.7996,755.3134,644.6805,
1751473775.0340297,767.4388,910.90765,836.47375,1450.0,
1751473775.0379255,781.77686,827.4461,824.2599,1339.5441,
1751473775.0418210,707.874,607.6848,720.4419,341.4576,
1751473775.0457165,635.29877,522.7187,662.1162,0.0,
1751473775.0496123,674.3301,697.8728,727.69946,498.73343,
1751473775.0535078,763.54456,906.1283,815.32074,1450.0,
1751473775.0574036,783.8125,878.60284,821.60474,1445.1322,
1751473775.0612991,718.40625,649.4598,736.10754,482.9793,
1751473775.0651946,641.93677,525.9049,669.1082,0.0,
1751473775.0690904,663.97485,685.03937,717.69824,358.98187,
1751473775.0729859,753.63184,896.4811,809.0368,1354.4131,
1751473775.0768814,786.9987,878.3373,817.62195,1450.0,
1751473775.0807772,725.30975,665.568,736.6386,630.962,
1751473775.0846727,646.45056,527.4095,665.745,0.0,
1751473775.0885684,656.2748,639.7241,695.0406,225.86827,
1751473775.0924640,739.20526,851.07733,784.3435,1236.1686,
1751473775.0963595,781.0688,889.1351,816.4713,1450.0,
1751473775.1002553,731.59375,700.882,747.34784,766.9963,
1751473775.1041508,645.477,536.7027,667.86914,0.0,
1751473775.1080463,641.84827,626.4481,683.6233,94.87884,
1751473775.1119421,734.0719,854.6176,770.53656,1081.2825,
1751473775.1158376,792.57465,920.5549,823.7289,1450.0,
1751473775.1197331,753.2778,737.7007,768.32385,916.395,
1751473775.1236289,667.86914,535.19806,677.95886,0.0,
1751473775.1275244,644.8575,583.1685,666.0105,4.6023316,
1751473775.1314201,722.9201,814.25867,747.7019,948.0803,
1751473775.1353157,794.5218,920.4663,815.23224,1450.0,
1751473775.1392112,763.98706,773.0147,775.13885,1049.0662,
1751473775.1431069,670.3473,550.7752,682.03015,78.15113,
1751473775.1470025,630.4309,562.9006,661.14264,0.0,
1751473775.1508980,700.17395,793.8137,741.3294,775.9354,
1751473775.1547937,783.19293,924.80316,815.32074,1450.0,
1751473775.1586893,775.7584,803.1069,787.7953,1172.267,
1751473775.1625848,692.82794,572.2822,685.3049,172.94147,
1751473775.1664805,638.131,528.11755,640.6977,0.0,
1751473775.1703761,689.8187,747.5249,711.41425,613.61475,
1751473775.1742718,781.95386,927.4583,792.3091,1450.0,
1751473775.1781673,786.9102,837.8014,782.30786,1303.699,
1751473775.1820629,700.7935,596.71,692.1199,290.65494,
1751473775.1859586,642.2908,528.9141,648.2207,0.0,
1751473775.1898541,681.67615,726.1063,711.7683,471.38498,
1751473775.1937497,763.456,908.42944,798.3275,1450.0,
1751473775.1976454,791.6011,856.1222,797.26544,1421.855,
1751473775.2015409,724.1592,631.139,706.2809,427.83984,
1751473775.2054367,647.0701,517.93933,641.4942,0.0,
1751473775.2093322,665.47943,669.1967,686.10144,342.51968,
1751473775.2132277,755.2249,868.6016,781.3343,1351.0499,
1751473775.2171235,797.885,872.05334,799.4781,1450.0,
1751473775.2210190,731.1512,679.37494,719.6454,579.45123,
1751473775.2249146,642.73334,534.75555,654.41614,0.0,
1751473775.2288103,655.4782,657.15985,678.31287,228.08093,
1751473775.2327058,741.1524,883.9132,760.0928,1233.7789,
1751473775.2366014,782.5734,903.91565,806.4701,1450.0,
1751473775.2404971,732.03625,693.713,740.7984,756.464,
1751473775.2443926,650.6989,513.2485,654.6817,0.0,
1751473775.2482884,649.63684,601.9319,673.1795,120.191666,
1751473775.2521839,736.7271,854.35205,761.24335,1112.8792,
1751473775.2560794,794.4332,928.60895,806.1161,1450.0,
1751473775.2599752,755.4904,747.7019,747.6134,928.60895,
1751473775.2638707,671.6749,542.01306,655.9208,0.0,
1751473775.2677662,656.1863,586.35474,653.00006,26.3749,
1751473775.2716620,724.2477,828.86224,743.7191,998.4404,
1751473775.2755575,792.2206,932.76874,800.9827,1450.0,
1751473775.2794530,776.8205,765.49164,757.08356,1083.4951,
1751473775.2833488,688.84515,549.97864,670.61285,87.09028,
1751473775.2872443,651.0529,574.67194,649.72534,0.0,
1751473775.2911401,716.3706,804.7885,730.4431,865.5924,
1751473775.2950356,799.65515,928.0779,801.1597,1450.0,
1751473775.2989311,794.0792,789.47687,769.74,1226.2559,
1751473775.3028269,705.3958,580.3363,672.6485,213.56589,
1751473775.3067224,659.72656,568.6535,636.8034,0.0,
1751473775.3106179,715.9281,763.98706,716.4591,740.6214,
1751473775.3145137,796.82294,928.78595,803.54944,1450.0,
1751473775.3184092,803.90344,847.18304,793.8137,1349.7223,
1751473775.3223050,719.8224,610.517,696.98773,366.94745,
1751473775.3262005,660.4346,546.9694,649.4598,0.0,
1751473775.3300960,702.0326,734.51447,722.21204,604.23303,
1751473775.3339918,783.9895,920.7319,815.5863,1450.0,
1751473775.3378873,808.7713,875.23956,816.2943,1450.0,
1751473775.3417828,734.60297,642.64484,727.3454,532.27734,
1751473775.3456786,657.07135,534.93256,660.34607,0.0,
1751473775.3495741,687.429,702.0326,703.36017,464.65848,
1751473775.3534696,781.0688,918.07666,797.08844,1411.5883,
1751473775.3573654,811.515,892.85236,813.4621,1450.0,
1751473775.3612609,752.3927,669.0197,735.75354,677.0738,
1751473775.3651567,673.1795,538.2073,664.5059,0.0,
1751473775.3690522,681.1451,664.6829,691.0578,299.77112,
1751473775.3729477,766.4652,894.9765,780.5378,1301.9288,
1751473775.3768435,811.42645,920.9974,821.3392,1450.0,
1751473775.3807390,763.456,701.1475,750.18005,800.09766,
1751473775.3846345,679.28644,532.27734,659.63806,0.0,
1751473775.3885303,669.3737,632.46655,679.8175,153.29305,
1751473775.3924258,753.80884,859.574,774.87335,1163.1509,
1751473775.3963213,814.96674,921.4399,822.6668,1450.0,
1751473775.4002171,774.51935,738.1432,762.4824,930.7331,
1751473775.4041126,681.2336,534.57855,663.4438,0.0,
1751473775.4080083,660.96564,595.2939,667.4266,39.56235,
1751473775.4119039,740.17883,843.6428,765.04913,1023.9303,
1751473775.4157994,810.0989,942.2389,820.1001,1450.0,
1751473775.4196951,784.3435,772.7492,761.9514,1065.8823,
1751473775.4235907,686.6325,549.18207,670.0818,73.99133,
1751473775.4274862,643.8839,558.1212,664.9484,0.0,
1751473775.4313819,713.71545,790.00793,749.0295,877.2752,
1751473775.4352775,794.3447,930.5561,822.40125,1450.0,
1751473775.4391730,783.0159,808.9483,789.03436,1202.8016,
1751473775.4430687,696.5452,590.6031,687.252,192.23586,
1751473775.4469643,649.99084,562.8121,656.3633,0.0,
1751473775.4508600,704.7763,771.86414,729.46954,748.1444,
1751473775.4547555,789.74243,920.2008,803.90344,1450.0,
1751473775.4586511,802.3988,824.87946,790.893,1331.844,
1751473775.4625468,720.53046,612.1101,699.64294,340.0415,
1751473775.4664423,657.15985,559.0948,659.107,0.0,
1751473775.4703379,697.6073,736.28455,722.30054,612.2871,
1751473775.4742336,774.96185,903.56165,800.9827,1450.0,
1751473775.4781291,794.9643,861.6096,803.0184,1435.3965,
1751473775.4820249,724.0707,638.308,714.512,498.99896,
1751473775.4859204,649.99084,531.92334,651.6725,0.0,
1751473775.4898160,681.1451,707.34296,702.82916,478.19995,
1751473775.4937117,771.51013,911.6157,793.9022,1417.9607,
1751473775.4976072,804.6115,883.6477,810.89545,1450.0,
1751473775.5015028,746.72833,656.3633,740.26733,666.63007,
1751473775.5053985,683.9773,539.09235,669.3737,0.0,
1751473775.5092940,694.9521,687.9601,696.45667,335.7932,
1751473775.5131896,757.9686,883.29364,794.5218,1326.0026,
1751473775.5170853,802.0448,898.6938,826.8266,1450.0,
1751473775.5209808,758.5882,700.6165,751.1536,814.61273,
1751473775.5248766,669.3737,529.8877,674.1531,0.0,
1751473775.5287721,672.47144,630.4309,690.1727,214.80498,
1751473775.5326676,768.7664,850.45776,789.47687,1229.3536,
1751473775.5365634,826.20703,902.8536,848.3336,1450.0,
1751473775.5404589,783.10443,717.4327,791.3355,969.5874,
1751473775.5443544,695.3946,519.0014,709.64417,0.0,
1751473775.5482502,678.40137,578.30066,715.043,79.21321,
1751473775.5521457,759.7388,817.97595,797.885,1099.6918,
1751473775.5560412,835.94275,908.9605,858.6004,1450.0,
1751473775.5599370,811.9575,745.4892,813.2851,1110.401,
1751473775.5638325,714.512,537.0567,724.3362,88.06385,
1751473775.5677283,684.1543,560.5109,712.1223,0.0,
1751473775.5716238,759.1192,779.9182,799.0356,959.4976,
1751473775.5755193,841.0761,900.19836,877.2752,1450.0,
1751473775.5794151,828.77374,783.19293,845.1474,1228.1145,
1751473775.5833106,735.66504,562.7236,749.73755,211.26472,
1751473775.5872061,695.57166,539.09235,725.48676,0.0,
1751473775.5911019,758.32263,748.8525,796.99994,813.99316,
1751473775.5949974,839.12897,900.6409,874.443,1450.0,
1751473775.5988932,840.7221,813.90466,861.8751,1342.2877,
1751473775.6027887,762.0399,590.249,768.9434,358.80487,
1751473775.6066842,709.2901,525.6394,725.30975,0.0,
1751473775.6105800,748.4099,715.22003,795.76086,671.7634,
1751473775.6144755,839.74854,900.10986,876.9212,1450.0,
1751473775.6183710,868.42456,833.02203,861.34406,1434.4229,
1751473775.6222668,791.247,598.56866,771.95264,513.2485,
1751473775.6261623,721.14996,512.983,722.7431,0.0,
1751473775.6300578,753.54333,692.3854,783.19293,523.60376,
1751473775.6339536,840.01404,900.28687,876.6557,1438.1401,
1751473775.6378491,873.4694,877.9833,882.23157,1450.0,
1751473775.6417449,811.42645,649.0173,796.20337,671.32086,
1751473775.6456404,725.6638,509.1772,731.2397,0.0,
1751473775.6495359,745.0467,652.2035,767.0848,360.30948,
1751473775.6534317,838.4209,870.8143,854.44055,1342.9072,
1751473775.6573272,881.96606,873.8235,882.76263,1450.0,
1751473775.6612227,823.9944,669.3737,809.6564,816.7369,
1751473775.6651185,742.56854,518.5589,724.60175,0.0,
1751473775.6690140,744.3386,630.3424,737.7007,224.00964,
1751473775.6729095,828.3312,857.5383,833.46454,1240.9479,
1751473775.6768053,879.9304,898.8708,885.3293,1450.0,
1751473775.6807008,835.94275,704.42224,823.2863,953.0367,
1751473775.6845965,747.6134,516.0807,730.4431,0.0,
1751473775.6884921,726.0178,582.8145,725.6638,87.97534,
1751473775.6923876,805.4965,826.29553,809.8334,1108.0999,
1751473775.6962833,867.89355,926.04224,859.0429,1450.0,
1751473775.7001789,833.11053,756.1985,799.1241,1092.6997,
1751473775.7040744,743.27655,537.1452,714.24646,75.67295,
1751473775.7079701,713.98096,558.4752,713.2729,0.0,
1751473775.7118657,781.4228,792.2206,794.5218,966.5782,
1751473775.7157614,851.43134,930.025,853.29,1450.0,
1751473775.7196569,831.60596,795.0528,814.70123,1211.6523,
1751473775.7235525,736.10754,554.1384,720.0879,194.183,
1751473775.7274482,690.2612,528.29456,686.6325,0.0,
1751473775.7313437,753.1893,763.72156,761.24335,824.96796,
1751473775.7352393,832.31396,934.8044,839.66003,1450.0,
1751473775.7391350,830.5439,827.62317,822.5783,1326.7106,
1751473775.7430305,748.4099,600.25024,727.3454,337.1208,
1751473775.7469261,688.0486,540.5085,666.453,0.0,
1751473775.7508218,729.6466,722.8316,733.6294,676.8083,
1751473775.7547174,817.0024,909.7571,832.668,1450.0,
1751473775.7586131,834.7037,853.82104,829.03925,1420.7043,
1751473775.7625086,750.09155,625.12054,742.48,486.25406,
1751473775.7664042,684.0658,530.4187,678.84393,0.0,
1751473775.7702999,721.681,700.17395,719.2028,515.2841,
1751473775.7741954,806.4701,898.5168,818.9495,1443.9816,
1751473775.7780910,829.39325,864.4418,833.28754,1450.0,
1751473775.7819867,763.0135,658.4874,742.83405,611.04803,
1751473775.7858822,682.7382,534.84406,665.1254,0.0,
1751473775.7897778,692.1199,668.6657,698.0498,366.06238,
1751473775.7936735,785.93665,888.51556,797.6195,1347.2441,
1751473775.7975690,830.0128,894.26843,822.31274,1450.0,
1751473775.8014648,766.8193,675.7462,742.83405,769.3859,
1751473775.8053603,678.22437,520.2405,671.32086,0.0,
1751473775.8092558,675.21515,639.45856,696.5452,218.16823,
1751473775.8131516,764.07556,872.8499,780.4492,1234.1329,
1751473775.8170471,823.4633,923.1215,826.29553,1450.0,
1751473775.8209426,776.3779,720.2649,761.06635,879.48785,
1751473775.8248384,697.16473,514.9301,663.3553,0.0,
1751473775.8287339,676.8083,586.7973,677.3393,71.69017,
1751473775.8326297,740.8869,838.50946,767.88135,1065.9708,
1751473775.8365252,805.5851,936.30896,818.06445,1450.0,
1751473775.8404207,781.77686,762.925,777.61707,1000.65314,
1751473775.8443165,709.2901,545.3763,694.5096,31.154245,
1751473775.8482120,682.6497,571.39716,681.76465,0.0,
1751473775.8521075,741.772,798.8586,765.31464,916.8376,
1751473775.8560033,826.1185,923.6526,838.86346,1450.0,
1751473775.8598988,817.62195,785.3171,811.07245,1137.484,
1751473775.8637943,730.1776,555.112,715.5741,137.62743,
1751473775.8676901,686.18994,539.7119,686.01294,0.0,
1751473775.8715856,746.19727,761.15485,762.925,768.7664,
1751473775.8754814,828.50824,914.97894,839.483,1450.0,
1751473775.8793769,825.41046,810.80695,824.2599,1267.2344,
1751473775.8832724,738.76276,579.0087,733.9834,262.95245,
1751473775.8871682,680.6141,531.4808,684.68536,0.0,
1751473775.8910637,731.4167,738.58575,751.2421,621.6688,
1751473775.8949592,823.4633,908.9605,837.7129,1450.0,
1751473775.8988550,835.94275,828.50824,835.1462,1386.5409,
1751473775.9027505,756.287,592.19617,742.2145,408.36844,
1751473775.9066460,687.1635,515.9922,677.95886,0.0,
1751473775.9105418,715.48553,713.0074,729.6466,482.8908,
1751473775.9144373,797.531,915.51,816.9139,1439.8218,
1751473775.9183331,822.22424,871.61084,822.6668,1450.0,
1751473775.9222286,750.44556,642.4678,747.5249,540.2429,
1751473775.9261241,672.20593,523.60376,681.4991,0.0,
1751473775.9300199,691.9429,667.78064,714.689,349.24615,
1751473775.9339154,778.4136,881.87756,800.18616,1338.6589,
1751473775.9378109,817.62195,886.5684,819.1265,1450.0,
1751473775.9417067,758.49963,675.7462,744.4271,709.2901,
1751473775.9456022,675.03815,521.9221,667.60364,0.0,
1751473775.9494977,679.37494,632.46655,696.89923,210.9107,
1751473775.9533935,766.1112,870.1947,786.8217,1219.3524,
1751473775.9572890,825.5875,912.8548,817.79895,1450.0,
1751473775.9611847,785.93665,702.0326,762.1284,856.2992,
1751473775.9650803,689.37616,519.975,672.914,0.0,
1751473775.9689758,671.40936,608.2158,673.6221,89.037415,
1751473775.9728715,757.34906,841.9612,768.32385,1085.5308,
1751473775.9767671,821.51624,908.9605,821.4277,1450.0,
1751473775.9806626,783.901,743.36505,766.4652,1001.5382,
1751473775.9845583,689.7302,545.55334,682.29565,25.489838,
1751473775.9884539,659.3725,583.3455,673.8876,0.0,
1751473775.9923496,730.0006,816.6484,753.98584,948.6999,
1751473775.9962451,808.24023,928.4319,817.88745,1450.0,
1751473776.0001407,796.99994,782.21936,780.0952,1138.723,
1751473776.0040364,700.882,560.42236,670.4358,134.5297,
1751473776.0079319,652.82306,555.90857,648.0437,0.0,
1751473776.0118275,719.0258,782.8389,741.772,806.64716,
1751473776.0157232,798.8586,912.7663,816.0288,1450.0,
1751473776.0196187,790.27344,797.9735,780.1837,1267.8539,
1751473776.0235143,700.26245,586.9743,684.68536,263.572,
1751473776.0274100,645.0345,551.1292,647.9552,0.0,
1751473776.0313056,706.63495,758.0571,722.8316,662.1162,
1751473776.0352013,791.247,926.13074,800.8942,1450.0,
1751473776.0390968,799.92065,845.0589,785.4056,1378.9293,
1751473776.0429924,726.7259,609.0124,699.55444,404.8282,
1751473776.0468881,660.52313,519.1784,645.56555,0.0,
1751473776.0507836,695.83716,702.56366,688.0486,500.7691,
1751473776.0546792,782.21936,907.89844,771.15607,1449.646,
1751473776.0585749,806.73566,862.7602,790.09644,1450.0,
1751473776.0624704,734.51447,639.28156,711.9453,527.0555,
1751473776.0663660,653.79663,532.8969,645.3,0.0,
1751473776.0702617,675.03815,682.20715,681.1451,357.8313,
1751473776.0741572,762.4824,892.94086,773.1917,1346.4475,
1751473776.0780530,804.877,880.55,800.45166,1450.0,
1751473776.0819485,751.8617,673.0025,714.42346,690.5268,
1751473776.0858440,669.3737,533.6935,628.39526,0.0,
1751473776.0897398,669.1082,651.0529,664.7714,223.65562,
1751473776.0936353,753.80884,879.5764,763.0135,1232.1858,
1751473776.0975308,806.4701,916.6606,802.3103,1450.0,
1751473776.1014266,756.55255,715.7511,740.7984,841.8727,
1751473776.1053221,673.268,532.8084,662.3817,0.0,
1751473776.1092179,661.5852,609.3664,674.1531,103.90649,
1751473776.1131134,741.949,841.9612,749.2065,1104.8251,
1751473776.1170089,810.3644,917.0146,794.7873,1450.0,
1751473776.1209047,771.24457,746.02026,747.9674,995.3427,
1751473776.1248002,679.8175,544.5798,662.3817,16.196667,
1751473776.1286957,662.3817,579.45123,648.1322,1.9471403,
1751473776.1325915,738.58575,819.6576,727.61096,975.51733,
1751473776.1364870,803.1069,937.9021,799.1241,1450.0,
1751473776.1403825,781.68835,779.8297,760.71234,1132.6161,
1751473776.1442783,700.9705,557.6787,666.3645,127.6262,
1751473776.1481738,657.07135,565.4672,645.65405,0.0,
1751473776.1520696,713.0074,788.1493,726.8144,826.9151,
1751473776.1559651,791.6011,928.3434,801.42523,1450.0,
1751473776.1598606,783.724,812.9311,768.8549,1257.4987,
1751473776.1637564,698.8464,584.85016,667.4266,253.65929,
1751473776.1676519,648.1322,541.2165,629.28033,0.0,
1751473776.1715474,699.99695,744.6042,703.80273,672.11743,
1751473776.1754432,790.00793,919.6698,788.3263,1450.0,
1751473776.1793387,804.43445,845.0589,776.9975,1365.388,
1751473776.1832342,720.3534,611.5791,682.11865,384.4717,
1751473776.1871300,647.33563,528.38306,623.97,0.0,
1751473776.1910255,687.252,712.5649,683.1807,518.47034,
1751473776.1949213,774.4308,900.37537,775.05035,1450.0,
1751473776.1988168,795.3183,862.1406,782.7504,1450.0,
1751473776.2027123,730.6202,646.6276,697.9613,507.8496,
1751473776.2066081,655.3012,533.782,626.1826,0.0,
1751473776.2105036,671.05536,684.2428,669.2852,361.63705,
1751473776.2143991,757.7031,894.35693,766.7308,1353.7936,
1751473776.2182949,802.66437,893.9144,788.1493,1450.0,
1751473776.2221904,741.4179,674.77264,703.09467,656.1863,
1751473776.2260861,659.81506,519.5325,623.61597,0.0,
1751473776.2299817,680.083,642.4678,663.0013,237.1971,
1751473776.2338772,761.15485,869.7522,757.6146,1243.8687,
1751473776.2377729,800.8057,904.09265,780.5378,1450.0,
1751473776.2416685,752.83527,706.63495,711.9453,813.55066,
1751473776.2455640,667.95764,535.8176,638.131,0.0,
1751473776.2494597,660.4346,626.0056,655.3012,114.61576,
1751473776.2533553,742.303,856.56476,748.3214,1115.0919,
1751473776.2572508,802.9299,918.6962,790.18494,1450.0,
1751473776.2611465,765.5802,738.58575,739.9133,962.06433,
1751473776.2650421,675.03815,541.65906,652.3805,1.5046084,
1751473776.2689378,651.584,583.5226,642.2023,8.231093,
1751473776.2728333,723.9822,814.34717,737.6122,974.98627,
1751473776.2767289,789.83093,927.3698,800.45166,1450.0,
1751473776.2806246,769.563,773.7228,747.6134,1097.9216,
1751473776.2845201,686.36694,553.34186,638.75055,103.994995,
1751473776.2884157,644.5035,567.85693,624.94354,0.0,
1751473776.2923114,705.0418,800.36316,727.1684,818.861,
1751473776.2962070,789.21136,925.42267,799.83215,1450.0,
1751473776.3001025,789.12286,804.7885,767.96985,1229.4421,
1751473776.3039982,696.10266,588.0364,680.437,223.30159,
1751473776.3078938,638.57355,545.64185,648.7518,0.0,
1751473776.3117895,695.4831,753.4548,718.49475,663.70935,
1751473776.3156850,786.29065,930.7331,787.2642,1450.0,
1751473776.3195806,801.5138,833.6416,762.3939,1337.5084,
1751473776.3234763,718.5833,599.0997,676.1002,341.81165,
1751473776.3273718,652.73456,539.09235,634.94476,0.0,
1751473776.3312674,689.37616,714.689,694.5096,509.26572,
1751473776.3351631,775.13885,904.18115,778.85614,1450.0,
1751473776.3390586,798.7701,868.07056,782.6619,1437.6091,
1751473776.3429542,720.79596,637.8655,698.9349,468.37576,
1751473776.3468499,648.9288,532.27734,633.8827,0.0,
1751473776.3507454,678.31287,687.9601,661.5852,356.3267,
1751473776.3546412,767.52734,895.3305,717.0787,1354.5901,
1751473776.3585367,801.1597,886.6569,713.2729,1450.0,
1751473776.3624322,735.93054,669.8163,632.37805,616.53546,
1751473776.3663280,656.80585,520.2405,552.89935,0.0,
1751473776.3702235,666.71857,633.7942,573.60986,231.53268,
1751473776.3741190,749.472,862.8487,669.8163,1240.2399,
1751473776.3780148,794.8758,897.01215,704.6878,1450.0,
1751473776.3819103,742.65704,694.1555,634.4137,766.4652,
1751473776.3858061,659.81506,536.34863,552.4568,0.0,
1751473776.3897016,655.0357,627.4217,565.5558,112.49161,
1751473776.3935971,733.36383,860.63605,662.6473,1104.0286,
1751473776.3974929,789.83093,938.69867,723.0086,1450.0,
1751473776.4013884,758.49963,758.49963,677.69336,925.5112,
1751473776.4052839,675.7462,549.27057,593.7008,0.0,
1751473776.4091797,655.2127,582.01794,586.44324,15.046084,
1751473776.4130752,725.6638,814.34717,678.13586,973.9242,
1751473776.4169707,789.21136,918.34216,743.09955,1450.0,
1751473776.4208665,771.68713,755.4019,698.1383,1080.6628,
1751473776.4247620,687.075,551.2177,612.6412,88.68339,
1751473776.4286578,650.6104,573.60986,598.65717,0.0,
1751473776.4325533,710.97174,796.2919,692.73944,840.8106,
1751473776.4364488,791.8666,928.52045,769.563,1450.0,
1751473776.4403446,797.35394,810.80695,733.1868,1226.2559,
1751473776.4442401,718.7603,572.5478,618.12854,216.3981,
1751473776.4481356,658.93,542.6326,580.4248,0.0,
1751473776.4520314,703.00616,768.7664,691.0578,707.874,
1751473776.4559269,780.3607,934.8929,787.7953,1450.0,
1751473776.4598224,787.7068,832.75653,766.3767,1351.4924,
1751473776.4637182,713.3614,588.74445,668.9312,365.0003,
1751473776.4676137,648.1322,532.8969,621.5803,0.0,
1751473776.4715095,689.6417,741.595,687.5176,577.50415,
1751473776.4754050,785.0516,935.86646,756.90656,1450.0,
1751473776.4793005,802.0448,867.89355,741.2409,1450.0,
1751473776.4831963,734.77997,632.37805,669.6393,522.6302,
1751473776.4870918,668.13464,536.5257,626.5367,0.0,
1751473776.4909873,684.3313,694.8636,688.57965,433.59274,
1751473776.4948831,770.094,904.44666,786.6447,1393.533,
1751473776.4987786,811.33795,901.17194,806.4701,1450.0,
1751473776.5026743,741.8605,674.86115,716.7247,682.29565,
1751473776.5065699,654.5047,515.8152,630.6965,0.0,
1751473776.5104654,672.8255,652.0265,669.5508,292.33658,
1751473776.5143611,764.42957,876.47864,767.79285,1293.4323,
1751473776.5182567,807.97473,901.7915,801.6908,1450.0,
1751473776.5221522,753.98584,696.5452,736.46155,830.1013,
1751473776.5260479,666.1875,519.798,657.6909,0.0,
1751473776.5299435,660.87714,615.1193,671.7634,159.577,
1751473776.5338390,743.7191,850.19226,759.7388,1175.1877,
1751473776.5377347,804.34595,915.33295,802.1333,1450.0,
1751473776.5416303,768.7664,737.9662,745.2237,972.15405,
1751473776.5455260,677.1623,545.3763,666.63007,0.0,
1751473776.5494215,653.44257,601.2238,665.47943,38.41177,
1751473776.5533171,730.6202,832.93353,736.5501,1035.7017,
1751473776.5572128,806.82416,924.0951,785.75964,1450.0,
1751473776.5611084,784.078,774.0768,760.80084,1105.2677,
1751473776.5650039,685.74744,558.3867,689.9072,98.06507,
1751473776.5688996,642.4678,562.1925,670.1703,0.0,
1751473776.5727952,711.5913,797.708,738.76276,887.0994,
1751473776.5766907,797.6195,928.4319,804.43445,1450.0,
1751473776.5805864,791.07,799.65515,767.79285,1228.38,
1751473776.5844820,699.64294,576.7076,670.96686,219.49582,
1751473776.5883777,651.8495,551.8373,644.2379,0.0,
1751473776.5922732,709.82117,770.271,713.62695,733.0983,
1751473776.5961688,791.07,935.0699,787.5298,1450.0,
1751473776.6000645,802.0448,835.85425,772.04114,1339.3671,
1751473776.6039600,724.86725,591.2226,685.4819,352.4324,
1751473776.6078556,656.4518,525.19684,644.1494,0.0,
1751473776.6117513,688.4911,726.9029,715.39703,582.8145,
1751473776.6156468,773.7228,921.97095,787.9723,1450.0,
1751473776.6195426,791.3355,864.61884,765.04913,1448.4954,
1751473776.6234381,718.31775,630.608,688.0486,519.3554,
1751473776.6273336,647.7782,516.3462,645.0345,0.0,
1751473776.6312294,667.1611,675.7462,701.5016,432.26517,
1751473776.6351249,760.71234,894.888,787.0872,1398.8433,
1751473776.6390204,800.09766,887.542,788.3263,1450.0,
1751473776.6429162,732.21326,675.12665,697.5188,647.6012,
1751473776.6468117,652.55756,536.0831,639.28156,0.0,
1751473776.6507072,663.53235,651.8495,679.729,288.97333,
1751473776.6546030,748.587,871.87634,767.96985,1290.5115,
1751473776.6584985,794.9643,909.5801,800.27466,1450.0,
1751473776.6623943,738.4972,711.41425,730.7972,798.239,
1751473776.6662898,659.54956,528.9141,663.3553,0.0,
1751473776.6701853,657.7794,619.5447,681.3221,161.87817,
1751473776.6740811,739.7363,859.574,756.55255,1172.7095,
1751473776.6779766,804.16895,922.14795,799.83215,1450.0,
1751473776.6818721,765.8457,741.8605,753.63184,949.93896,
1751473776.6857679,675.21515,535.9061,670.78986,0.0,
1751473776.6896634,654.5932,593.7008,666.3645,46.465847,
1751473776.6935589,728.67303,831.69446,753.1893,1043.2247,
1751473776.6974547,794.7873,917.3686,812.3115,1450.0,
1751473776.7013502,770.271,770.1825,771.4216,1087.6549,
1751473776.7052460,668.31165,565.2017,680.9681,86.11671,
1751473776.7091415,624.76654,570.60065,653.17706,0.0,
1751473776.7130370,704.7763,809.6564,729.38104,893.8259,
1751473776.7169328,782.04236,947.9033,799.3896,1450.0,
1751473776.7208283,757.6146,797.6195,769.8285,1206.6074,
1751473776.7247238,665.0369,562.5466,687.252,202.06006,
1751473776.7286196,623.4389,543.5177,657.8679,0.0,
1751473776.7325151,684.0658,756.64105,713.0074,725.8408,
1751473776.7364109,767.1733,914.53644,792.92865,1450.0,
1751473776.7403064,771.51013,828.77374,786.37915,1328.0382,
1751473776.7442019,687.7831,605.3836,701.9441,333.138,
1751473776.7480977,626.8022,528.20605,657.33685,0.0,
1751473776.7519932,671.49786,713.98096,707.9625,590.6916,
1751473776.7558887,763.81006,911.08466,786.5562,1450.0,
1751473776.7597845,790.893,856.1222,789.83093,1426.9883,
1751473776.7636800,717.2557,628.7493,712.5649,476.1643,
1751473776.7675755,636.09534,525.8164,653.79663,0.0,
1751473776.7714713,661.7622,693.00494,702.82916,433.50424,
1751473776.7753668,754.07434,911.8812,791.1585,1401.587,
1751473776.7792625,785.1401,898.5168,802.4873,1450.0,
1751473776.7831581,727.4339,671.05536,720.4419,619.1906,
1751473776.7870536,652.292,514.5761,639.7241,0.0,
1751473776.7909493,661.9392,643.7069,677.60486,297.2044,
1751473776.7948449,755.8445,884.0902,779.21014,1297.061,
1751473776.7987404,805.3195,910.81915,801.8678,1450.0,
1751473776.8026361,752.3927,704.24524,733.1868,775.7584,
1751473776.8065317,664.41736,530.68427,657.6024,0.0,
1751473776.8104272,656.2748,618.8366,678.13586,166.392,
1751473776.8143229,738.2317,860.90155,767.2618,1176.5153,
1751473776.8182185,797.26544,930.5561,805.5851,1450.0,
1751473776.8221142,759.0307,738.93976,747.6134,917.3686,
1751473776.8260098,673.6221,541.128,663.97485,0.0,
1751473776.8299053,654.32764,598.0376,674.1531,50.714153,
1751473776.8338010,730.4431,831.2519,758.5882,1039.5074,
1751473776.8376966,802.4873,922.9445,807.97473,1450.0,
1751473776.8415921,780.6263,757.5261,761.5974,1060.3064,
1751473776.8454878,687.8716,553.5189,672.8255,68.85796,
1751473776.8493834,647.9552,577.76965,653.6196,0.0,
1751473776.8532789,720.88446,802.66437,732.8328,888.51556,
1751473776.8571746,800.18616,928.78595,808.5943,1450.0,
1751473776.8610702,781.86536,798.5046,775.5814,1186.251,
1751473776.8649659,690.8808,572.8133,679.46344,182.67717,
1751473776.8688614,649.1058,545.1993,654.5047,0.0,
1751473776.8727570,706.3694,760.1813,731.77075,724.77875,
1751473776.8766527,783.724,931.1756,792.92865,1450.0,
1751473776.8805482,787.4412,835.2347,764.25256,1306.6196,
1751473776.8844438,711.41425,591.3111,688.57965,306.76312,
1751473776.8883395,654.41614,534.75555,649.81384,0.0,
1751473776.8922350,693.89,732.21326,705.8384,584.93866,
1751473776.8961308,777.61707,906.65936,787.7953,1450.0,
1751473776.9000263,797.9735,856.91876,792.3091,1418.4917,
1751473776.9039218,723.8052,628.21826,708.8476,457.40097,
1751473776.9078176,650.16785,515.8152,649.99084,0.0,
1751473776.9117131,678.31287,692.1199,696.01416,440.40775,
1751473776.9156086,768.8549,911.5272,783.9895,1406.6318,
1751473776.9195044,795.3183,890.8167,798.416,1450.0,
1751473776.9233999,730.6202,671.8519,714.6005,609.0124,
1751473776.9272954,656.98285,535.9946,645.83105,0.0,
1751473776.9311912,668.5772,672.20593,679.8175,316.14478,
1751473776.9350867,763.63306,895.242,763.456,1310.6024,
1751473776.9389825,814.87823,899.66736,797.6195,1450.0,
1751473776.9428780,754.07434,680.26,734.60297,774.4308,
1751473776.9467735,661.49664,518.6474,647.6012,0.0,
1751473776.9506693,664.24036,633.3516,661.8507,185.77489,
1751473776.9545648,748.764,859.751,764.5181,1196.0752,
1751473776.9584603,799.65515,914.80194,816.3828,1450.0,
1751473776.9623561,757.43756,732.39026,757.6146,937.28253,
1751473776.9662516,672.914,538.1188,662.2047,0.0,
1751473776.9701471,655.5668,604.5871,656.98285,67.353355,
1751473776.9740429,737.1696,835.0577,756.1985,1073.4939,
1751473776.9779384,808.7713,928.3434,812.223,1450.0,
1751473776.9818342,778.59064,762.2169,759.65027,1073.0514,
1751473776.9857297,686.10144,542.36707,667.51514,70.09705,
1751473776.9896252,653.5311,574.84894,649.72534,0.0,
1751473776.9935210,724.3362,807.7977,736.8156,928.0779,
1751473776.9974165,796.2919,937.28253,803.1069,1450.0,
1751473777.0013120,779.7412,807.7977,767.61584,1191.6499,
1751473777.0052078,694.3325,572.8133,685.74744,183.91626,
1751473777.0091033,646.45056,553.5189,657.6909,0.0,
1751473777.0129991,705.2188,775.13885,717.69824,760.71234,
1751473777.0168946,792.66315,930.1135,786.29065,1450.0,
1751473777.0207901,790.9815,826.47253,768.5894,1297.6805,
1751473777.0246859,703.71423,572.3707,688.4911,300.74466,
1751473777.0285814,646.8931,497.67136,651.4954,0.0,
1751473777.0324769,690.9693,712.9189,719.2913,588.83295,
1751473777.0363727,773.6343,918.96173,806.82416,1450.0,
1751473777.0402682,795.76086,863.64526,799.56665,1402.3835,
1751473777.0441637,719.9109,623.52747,705.3073,430.49503,
1751473777.0480595,643.6184,521.47955,644.946,0.0,
1751473777.0519550,674.4186,701.6786,687.9601,437.48703,
1751473777.0558507,769.3859,914.0054,769.74,1412.9158,
1751473777.0597463,801.9563,887.3649,794.7873,1450.0,
1751473777.0636418,737.5237,649.99084,724.3362,561.30743,
1751473777.0675375,655.9208,506.87604,661.14264,0.0,
1751473777.0714331,666.9841,649.54834,691.58887,290.47794,
1751473777.0753286,763.279,874.1775,770.89056,1296.3529,
1751473777.0792243,803.4609,894.6225,803.3724,1450.0,
1751473777.0831199,736.46155,685.57043,736.10754,705.2188,
1751473777.0870154,651.761,513.77954,651.3184,0.0,
1751473777.0909111,657.15985,626.5367,665.745,162.05518,
1751473777.0948067,745.4007,870.8143,757.17206,1165.0095,
1751473777.0987024,801.9563,914.1824,803.1069,1450.0,
1751473777.1025980,761.06635,720.53046,743.8961,857.71533,
1751473777.1064935,671.7634,532.8084,663.3553,0.0,
1751473777.1103892,657.7794,600.42725,670.2588,55.582005,
1751473777.1142848,740.17883,843.20026,755.6675,1031.7189,
1751473777.1181803,805.1425,921.1744,796.64594,1450.0,
1751473777.1220760,771.06757,745.4007,747.5249,1001.8922,
1751473777.1259716,676.8083,539.00385,671.7634,37.17268,
1751473777.1298673,644.3264,567.32587,660.08057,0.0,
1751473777.1337628,716.7247,802.1333,737.7007,882.14307,
1751473777.1376584,798.062,928.60895,803.0184,1450.0,
1751473777.1415541,784.432,786.7332,769.0319,1143.0599,
1751473777.1454496,690.7038,565.8213,682.9152,143.73436,
1751473777.1493452,642.64484,555.90857,656.2748,0.0,
1751473777.1532409,704.42224,769.917,727.69946,739.29376,
1751473777.1571364,786.9987,934.0963,795.3183,1450.0,
1751473777.1610320,784.9631,838.50946,780.4492,1283.431,
1751473777.1649277,703.44867,594.1433,694.3325,276.93646,
1751473777.1688232,644.4149,527.94055,646.45056,0.0,
1751473777.1727190,688.4026,735.75354,711.41425,610.16296,
1751473777.1766145,781.3343,920.7319,791.1585,1450.0,
1751473777.1805100,803.99194,851.6969,776.2894,1405.4813,
1751473777.1844058,719.1143,619.8102,697.5188,439.08014,
1751473777.1883013,640.4321,526.613,658.8415,0.0,
1751473777.1921968,675.48065,701.5901,713.62695,480.58963,
1751473777.1960926,770.3595,912.9433,798.1505,1428.1389,
1751473777.1999881,800.09766,884.7098,804.6115,1450.0,
1751473777.2038836,730.8857,652.2035,719.9994,598.4801,
1751473777.2077794,653.17706,523.4267,652.55756,0.0,
1751473777.2116749,677.51636,670.61285,680.3485,343.8473,
1751473777.2155707,765.9342,890.02014,765.7572,1333.3486,
1751473777.2194662,806.55865,900.99493,804.523,1450.0,
1751473777.2233617,752.1272,684.68536,737.0811,751.0651,
1751473777.2272575,663.3553,521.5681,661.14264,0.0,
1751473777.2311530,660.61163,635.12177,678.5784,212.59232,
1751473777.2350485,752.92377,874.62006,759.9158,1223.2467,
1751473777.2389443,805.1425,918.34216,802.75287,1450.0,
1751473777.2428398,756.3755,719.2913,750.8881,906.3938,
1751473777.2467353,668.7542,537.58777,671.32086,0.0,
1751473777.2506311,657.42535,608.6584,678.84393,89.74547,
1751473777.2545266,735.3995,825.32196,763.456,1098.2756,
1751473777.2584224,805.4965,921.2629,812.4885,1450.0,
1751473777.2623179,778.59064,763.0135,760.0043,1048.004,
1751473777.2662134,680.437,552.1913,667.0726,47.88195,
1751473777.2701092,646.9816,588.56744,656.80585,0.0,
1751473777.2740047,726.8144,814.87823,744.6042,959.7632,
1751473777.2779002,805.5851,936.13196,810.80695,1450.0,
1751473777.2817960,785.3171,803.1954,768.41235,1179.3475,
1751473777.2856915,695.1291,573.3443,673.6221,166.4805,
1751473777.2895873,654.41614,556.61664,658.4874,0.0,
1751473777.2934828,715.39703,778.50214,729.9121,810.98395,
1751473777.2973783,793.9022,925.5112,786.02515,1450.0,
1751473777.3012741,801.1597,813.3736,766.6423,1298.3885,
1751473777.3051696,732.21326,592.28467,698.7579,300.12512,
1751473777.3090651,659.90356,540.951,661.14264,0.0,
1751473777.3129609,686.36694,746.37427,715.043,660.34607,
1751473777.3168564,770.1825,939.4067,794.4332,1450.0,
1751473777.3207519,778.76764,868.15906,783.901,1395.3031,
1751473777.3246477,691.67737,630.3424,687.9601,434.5663,
1751473777.3285432,610.07446,532.10034,625.7401,0.0,
1751473777.3324389,636.6264,710.2637,672.8255,497.14032,
1751473777.3363345,722.9201,916.3065,753.54333,1440.1758,
1751473777.3402300,743.8076,878.1603,750.8881,1450.0,
1751473777.3441257,675.12665,648.1322,658.576,571.7512,
1751473777.3480213,595.64795,519.4439,592.55023,0.0,
1751473777.3519168,610.07446,662.2047,638.485,345.5289,
1751473777.3558125,703.27167,893.9144,724.69025,1338.1279,
1751473777.3597081,742.83405,915.33295,746.63983,1450.0,
1751473777.3636036,676.4542,693.00494,680.7911,712.0338,
1751473777.3674994,592.55023,521.9221,598.83417,0.0,
1751473777.3713949,598.74567,647.24713,613.96875,205.60031,
1751473777.3752906,689.9072,884.2672,703.89124,1215.0156,
1751473777.3791862,743.18805,919.31573,742.0375,1450.0,
1751473777.3830817,687.252,727.61096,669.3737,855.5912,
1751473777.3869774,603.08246,552.81085,580.69037,0.0,
1751473777.3908730,595.2054,624.324,588.0364,91.25008,
1751473777.3947685,676.4542,840.5451,685.74744,1088.8939,
1751473777.3986642,750.5341,924.80316,750.7111,1450.0,
1751473777.4025598,729.02704,770.1825,704.9533,995.1657,
1751473777.4064555,642.91034,563.69714,622.8194,23.011658,
1751473777.4103510,615.2963,592.81573,614.05725,0.0,
1751473777.4142466,694.5981,811.16095,694.6866,941.7964,
1751473777.4181423,776.2009,931.3526,757.17206,1450.0,
1751473777.4220378,761.06635,802.66437,722.21204,1132.8816,
1751473777.4259334,672.56,582.726,629.7229,131.34346,
1751473777.4298291,631.493,576.9731,602.72845,0.0,
1751473777.4337246,695.2176,784.8746,681.2336,793.37115,
1751473777.4376202,775.7584,925.68823,763.102,1450.0,
1751473777.4415159,775.8469,824.2599,753.63184,1257.2332,
1751473777.4454114,689.9072,589.36395,668.8427,252.33168,
1751473777.4493072,630.608,542.80963,630.8735,0.0,
1751473777.4532027,682.5612,759.3847,689.11066,639.10455,
1751473777.4570982,772.30664,931.1756,762.1284,1450.0,
1751473777.4609940,783.10443,837.4473,755.4019,1370.7867,
1751473777.4648895,711.06024,604.8526,664.9484,389.16254,
1751473777.4687850,647.0701,532.10034,610.78253,0.0,
1751473777.4726808,679.46344,719.6454,671.14386,483.33334,
1751473777.4765763,769.2089,915.33295,764.16406,1442.5654,
1751473777.4804718,794.3447,877.6293,766.8193,1450.0,
1751473777.4843676,725.5753,656.0978,677.69336,524.4888,
1751473777.4882631,656.89435,528.02905,625.9171,0.0,
1751473777.4921589,684.77386,668.13464,673.6221,343.67026,
1751473777.4960544,776.3779,894.711,759.1192,1339.3671,
1751473777.4999499,810.54144,905.5973,777.70557,1450.0,
1751473777.5038457,742.3915,678.13586,700.7935,673.6221,
1751473777.5077412,658.8415,521.21405,629.8114,0.0,
1751473777.5116367,668.22314,644.592,664.7714,210.37967,
1751473777.5155325,756.72955,881.52356,755.579,1218.1133,
1751473777.5194280,809.3023,916.6606,783.45844,1450.0,
1751473777.5233238,760.2698,712.2108,720.70746,822.9323,
1751473777.5272193,675.03815,538.64984,640.3436,0.0,
1751473777.5311148,669.3737,608.7469,649.90234,91.69261,
1751473777.5350106,745.93176,845.0589,747.9674,1083.9376,
1751473777.5389061,802.66437,931.79517,796.11487,1450.0,
1751473777.5428016,768.5009,754.6939,747.7019,968.87933,
1751473777.5466974,684.0658,553.6074,667.86914,10.355247,
1751473777.5505929,657.9564,586.7088,652.115,0.0,
1751473777.5544884,731.94775,798.8586,735.84204,945.9562,
1751473777.5583842,810.1874,919.49274,801.5138,1450.0,
1751473777.5622797,792.2206,785.58264,757.7916,1118.1011,
1751473777.5661755,697.16473,565.9983,667.86914,116.739914,
1751473777.5700710,655.0357,571.30865,652.82306,0.0,
1751473777.5739665,722.03503,787.5298,732.21326,811.42645,
1751473777.5778623,802.75287,935.2469,800.00916,1450.0,
1751473777.5817578,794.1677,827.3576,783.45844,1250.7721,
1751473777.5856533,703.62573,586.00073,742.3915,247.72935,
1751473777.5895491,650.5219,541.0395,750.09155,0.0,
1751473777.5934446,702.82916,747.6134,835.50024,649.72534,
1751473777.5973401,792.84015,917.89966,918.16516,1450.0,
1751473777.6012359,801.2482,848.3336,905.6858,1366.3615,
1751473777.6051314,714.7775,618.30554,819.392,381.19696,
1751473777.6090271,655.2127,533.605,772.21814,0.0,
1751473777.6129227,696.8107,717.52124,831.0749,515.1956,
1751473777.6168182,781.3343,919.49274,912.5008,1450.0,
1751473777.6207139,803.81494,863.64526,919.49274,1450.0,
1751473777.6246095,734.1604,627.59875,838.86346,531.65784,
1751473777.6285050,654.5932,512.54047,757.34906,0.0,
1751473777.6324008,670.3473,674.86115,783.36993,360.22095,
1751473777.6362963,760.3583,906.0398,877.6293,1350.6073,
1751473777.6401920,801.2482,912.5893,898.8708,1450.0,
1751473777.6440876,737.7007,691.2348,820.0116,678.13586,
1751473777.6479831,657.6024,530.86127,741.949,0.0,
1751473777.6518788,663.0013,649.0173,764.87213,226.04529,
1751473777.6557744,750.26855,870.4602,851.07733,1234.3984,
1751473777.6596699,805.7621,893.6489,889.66614,1450.0,
1751473777.6635656,751.5077,688.84515,820.89667,825.7645,
1751473777.6674612,660.34607,517.05426,730.1776,0.0,
1751473777.6713567,647.7782,620.51825,741.5065,104.61454,
1751473777.6752524,731.68225,857.09576,831.69446,1104.0286,
1751473777.6791480,798.3275,925.59973,876.7442,1450.0,
1751473777.6830437,767.1733,749.472,810.71844,965.5161,
1751473777.6869392,679.10944,549.53613,710.3522,6.992004,
1751473777.6908348,651.6725,586.00073,702.74066,0.0,
1751473777.6947305,723.3626,805.9391,789.47687,955.42633,
1751473777.6986260,794.0792,914.0054,853.3785,1450.0,
1751473777.7025216,771.15607,768.7664,808.5058,1105.0907,
1751473777.7064173,684.3313,561.30743,716.3706,108.86285,
1751473777.7103128,642.1138,562.1925,693.27045,0.0,
1751473777.7142084,699.55444,773.8113,772.5722,809.2138,
1751473777.7181041,778.50214,919.22723,842.3152,1450.0,
1751473777.7219996,781.51135,808.5058,807.5322,1233.8674,
1751473777.7258954,702.2096,576.8846,710.52924,228.16945,
1751473777.7297909,649.1943,538.4728,673.268,0.0,
1751473777.7336864,703.27167,745.93176,744.6927,653.44257,
1751473777.7375822,786.29065,906.1283,823.9944,1450.0,
1751473777.7414777,792.84015,827.3576,808.8598,1347.9521,
1751473777.7453732,713.98096,601.9319,719.5569,355.1761,
1751473777.7492690,645.74255,528.11755,672.6485,0.0,
1751473777.7531645,681.58765,714.15796,728.85004,508.2036,
1751473777.7570601,775.05035,908.518,807.44366,1450.0,
1751473777.7609558,799.4781,863.2912,807.7977,1450.0,
1751473777.7648513,725.39825,632.28955,727.87646,504.22083,
1751473777.7687471,651.938,517.40826,670.4358,0.0,
1751473777.7726426,674.59564,676.8968,705.1303,358.27383,
1751473777.7765381,754.5169,890.5512,787.4412,1351.4924,
1751473777.7804339,795.4068,891.7018,817.62195,1450.0,
1751473777.7843294,738.2317,669.6393,744.2501,653.97363,
1751473777.7882249,655.8323,510.15076,663.0898,0.0,
1751473777.7921207,666.1875,637.0689,687.6061,229.40854,
1751473777.7960162,751.4191,882.85114,777.44,1237.3192,
1751473777.7999120,803.54944,913.1203,811.6035,1450.0,
1751473777.8038075,759.9158,696.01416,752.56976,802.1333,
1751473777.8077030,665.568,521.8336,668.8427,0.0,
1751473777.8115988,651.584,609.1009,673.268,111.783554,
1751473777.8154943,732.39026,841.6072,766.3767,1109.339,
1751473777.8193898,792.57465,924.53766,813.72766,1450.0,
1751473777.8232856,757.34906,753.89734,758.1456,952.8597,
1751473777.8271811,669.5508,544.3142,676.2772,0.0,
1751473777.8310766,649.72534,590.426,658.1334,8.762132,
1751473777.8349724,730.0891,827.8002,733.5409,971.092,
1751473777.8388679,805.9391,931.1756,807.35516,1450.0,
1751473777.8427637,782.13086,778.2366,775.31586,1102.6124,
1751473777.8466592,686.6325,552.72235,681.4991,104.88006,
1751473777.8505547,643.7954,556.70514,657.8679,0.0,
1751473777.8544505,706.98895,785.93665,740.44434,827.7117,
1751473777.8583460,786.37915,914.53644,811.42645,1450.0,
1751473777.8622415,784.255,798.1505,778.59064,1234.2214,
1751473777.8661373,700.43945,582.01794,683.0037,228.08093,
1751473777.8700328,642.2908,546.7924,645.56555,0.0,
1751473777.8739283,698.4923,756.99506,713.0074,676.5428,
1751473777.8778241,785.84814,931.52966,792.3091,1450.0,
1751473777.8817196,791.07,851.5199,780.8033,1356.5372,
1751473777.8856153,726.3718,612.5527,691.9429,371.37277,
1751473777.8895109,670.0818,532.18884,637.6,0.0,
1751473777.8934064,692.56244,726.0178,698.8464,527.0555,
1751473777.8973022,768.32385,928.60895,783.901,1450.0,
1751473777.9011977,795.4068,877.6293,771.95264,1450.0,
1751473777.9050932,724.60175,634.3252,685.65894,513.0715,
1751473777.9089890,648.4862,526.967,620.69525,0.0,
1751473777.9128845,672.38293,689.02216,657.5139,374.736,
1751473777.9167802,761.33185,902.5881,743.5421,1362.4672,
1751473777.9206758,795.2298,909.049,754.7824,1450.0,
1751473777.9245713,725.22125,696.45667,672.8255,656.0978,
1751473777.9284670,640.3436,550.9522,596.887,0.0,
1751473777.9323626,652.2035,670.4358,626.6252,238.17067,
1751473777.9362581,746.81683,899.57886,723.8052,1243.7802,
1751473777.9401538,794.7873,937.28253,754.6054,1450.0,
1751473777.9440494,746.63983,727.4339,679.6405,816.1173,
1751473777.9479449,665.1254,543.07513,594.7629,0.0,
1751473777.9518406,654.9472,635.21027,607.7733,116.20888,
1751473777.9557362,737.8777,876.21313,700.7935,1117.8356,
1751473777.9596319,805.1425,938.1676,753.63184,1450.0,
1751473777.9635274,773.1917,754.9594,698.5809,961.26776,
1751473777.9674230,684.59686,552.81085,615.0308,0.0,
1751473777.9713187,658.1334,602.2859,618.39404,11.417323,
1751473777.9752142,724.95575,833.19904,704.6878,980.29663,
1751473777.9791098,794.5218,940.9998,768.23535,1450.0,
1751473777.9830055,777.79407,793.8137,732.9213,1107.7458,
1751473777.9869010,691.76587,565.2902,635.56433,105.85363,
1751473777.9907966,651.761,567.59143,614.49976,0.0,
1751473777.9946923,717.60974,799.1241,702.56366,842.4922,
1751473777.9985878,793.8137,940.11475,773.9883,1450.0,
1751473778.0024836,783.0159,824.96796,746.37427,1235.6376,
1751473778.0063791,699.1119,588.0364,655.4782,230.91315,
1751473778.0102746,647.0701,552.4568,619.8987,0.0,
1751473778.0141704,707.16595,766.1997,693.8015,680.6141,
1751473778.0180659,792.3091,926.39624,778.1481,1450.0,
1751473778.0219615,791.1585,836.8278,764.5181,1356.5372,
1751473778.0258572,715.48553,607.5078,683.0037,372.0808,
1751473778.0297527,656.0093,540.774,632.02405,0.0,
1751473778.0336485,694.3325,731.85925,687.9601,531.74634,
1751473778.0375440,773.8113,924.62616,783.8125,1450.0,
1751473778.0414395,798.1505,874.443,786.8217,1450.0,
1751473778.0453353,734.77997,646.18506,691.3233,520.77155,
1751473778.0492308,659.1955,534.93256,628.30676,0.0,
1751473778.0531263,679.552,684.77386,678.22437,386.59586,
1751473778.0570221,762.2169,889.4891,765.49164,1368.5741,
1751473778.0609176,800.7172,896.92365,793.10565,1450.0,
1751473778.0648131,743.8961,677.4278,720.4419,668.04614,
1751473778.0687089,662.7358,518.20483,641.1402,0.0,
1751473778.0726044,667.78064,650.07935,673.3565,244.2776,
1751473778.0765002,747.17084,883.02814,769.0319,1251.1262,
1751473778.0803957,803.4609,916.3065,801.6023,1450.0,
1751473778.0842912,761.33185,715.48553,728.76154,818.684,
1751473778.0881870,669.3737,532.36584,656.0978,0.0,
1751473778.0920825,657.6909,610.95953,683.0922,120.8112,
1751473778.0959780,736.46155,840.5451,769.2974,1124.385,
1751473778.0998738,800.6287,917.3686,810.80695,1450.0,
1751473778.1037693,768.6779,743.01105,751.1536,961.7988,
1751473778.1076648,679.729,547.943,659.63806,0.0,
1751473778.1115606,656.98285,599.71924,656.89435,14.692059,
1751473778.1154561,727.3454,832.5795,740.8869,987.02313,
1751473778.1193519,802.2218,938.2561,806.3816,1450.0,
1751473778.1232474,780.8033,782.04236,772.39514,1109.87,
1751473778.1271429,686.27844,553.7844,682.47266,108.06629,
1751473778.1310387,645.3,554.40393,659.3725,0.0,
1751473778.1349342,710.61774,791.424,738.93976,843.28876,
1751473778.1388297,790.09644,924.4491,804.34595,1450.0,
1751473778.1427255,785.58264,812.3115,776.0239,1240.5939,
1751473778.1466210,707.25446,598.1261,688.75665,234.71892,
1751473778.1505165,651.3184,554.2269,658.3989,0.0,
1751473778.1544123,696.36816,759.2962,730.9742,688.75665,
1751473778.1583078,780.0952,926.48474,809.6564,1450.0,
1751473778.1622036,790.36194,845.4129,799.3896,1355.6522,
1751473778.1660991,712.7419,609.54346,707.52,372.43484,
1751473778.1699946,650.07935,528.5601,650.7874,0.0,
1751473778.1738904,687.3405,715.7511,704.24524,534.2245,
1751473778.1777859,775.5814,917.81116,791.8666,1450.0,
1751473778.1816814,806.64716,870.0177,794.6103,1450.0,
1751473778.1855772,735.311,627.59875,708.9361,516.96576,
1751473778.1894727,657.9564,515.1071,648.8403,0.0,
1751473778.1933684,682.7382,686.898,691.50037,387.56943,
1751473778.1972640,770.71356,908.16394,785.93665,1368.4856,
1751473778.2011595,806.91266,897.7202,803.63794,1450.0,
1751473778.2050552,747.34784,672.56,720.61896,671.6749,
1751473778.2089508,666.453,525.7279,650.16785,0.0,
1751473778.2128463,672.20593,647.8667,686.45544,247.0213,
1751473778.2167420,756.1985,871.52234,772.39514,1253.1619,
1751473778.2206376,806.4701,913.1203,792.66315,1450.0,
1751473778.2245331,762.2169,711.9453,726.1063,822.8438,
1751473778.2284288,676.1887,522.6302,650.07935,0.0,
1751473778.2323244,667.1611,618.5711,657.33685,123.64341,
1751473778.2362201,747.8789,861.6981,750.7111,1129.2529,
1751473778.2401156,805.7621,928.52045,811.6035,1450.0,
1751473778.2440112,767.1733,741.595,762.1284,965.7816,
1751473778.2479069,685.3934,542.10156,677.51636,0.0,
1751473778.2518024,659.1955,593.6123,670.52435,12.744919,
1751473778.2556980,724.86725,827.9772,748.1444,984.8105,
1751473778.2595937,796.55743,929.848,805.9391,1450.0,
1751473778.2634892,775.05035,780.5378,763.72156,1106.7722,
1751473778.2673848,695.1291,568.6535,670.70135,105.67661,
1751473778.2712805,661.23114,566.4408,658.576,0.0,
1751473778.2751760,722.5661,776.6435,743.18805,845.50146,
1751473778.2790718,800.5402,929.9365,805.4965,1450.0,
1751473778.2829673,791.7781,822.8438,776.9975,1238.3812,
1751473778.2868629,704.06824,577.68115,681.1451,234.09937,
1751473778.2907586,646.27356,534.313,646.8046,0.0,
1751473778.2946541,700.528,756.64105,721.504,682.5612,
1751473778.2985497,790.09644,935.3354,799.3011,1450.0,
1751473778.3024454,796.99994,854.17505,793.9022,1353.0856,
1751473778.3063409,715.39703,605.6492,713.0074,367.83252,
1751473778.3102367,650.5219,520.2405,661.14264,0.0,
1751473778.3141322,688.0486,719.4683,710.70624,527.58655,
1751473778.3180277,773.8998,900.46387,796.02637,1450.0,
1751473778.3219235,800.00916,850.6348,792.84015,1450.0,
1751473778.3258190,732.12476,648.2207,701.5016,512.71747,
1751473778.3297145,655.3012,536.43713,649.1943,0.0,
1751473778.3336103,670.96686,685.12787,702.0326,386.50735,
1751473778.3375058,761.7744,889.93164,790.45044,1368.9281,
1751473778.3414013,805.5851,886.21436,806.82416,1450.0,
1751473778.3452971,739.38226,680.1715,734.4259,662.4702,
1751473778.3491926,657.33685,528.20605,662.2047,0.0,
1751473778.3530884,664.7714,647.42413,683.1807,239.14424,
1751473778.3569839,750.09155,871.2568,768.7664,1247.4089,
1751473778.3608794,803.81494,903.2076,801.6908,1450.0,
1751473778.3647752,757.34906,700.43945,742.83405,807.17816,
1751473778.3686707,664.6829,526.0819,664.5059,0.0,
1751473778.3725662,659.0185,618.12854,677.0738,120.368675,
1751473778.3764620,748.2329,856.83026,768.32385,1120.4907,
1751473778.3803575,808.06323,932.59174,816.2058,1450.0,
1751473778.3842530,773.9883,745.4007,759.4732,964.54254,
1751473778.3881488,685.03937,538.82684,670.4358,0.0,
1751473778.3920443,653.35406,591.0456,658.2219,11.948361,
1751473778.3959401,725.9293,819.3035,737.2581,982.77484,
1751473778.3998356,796.91144,916.7491,802.66437,1450.0,
1751473778.4037311,773.9883,759.9158,768.5894,1102.6124,
1751473778.4076269,682.29565,541.74756,676.1887,104.26051,
1751473778.4115224,644.1494,569.8041,655.3897,0.0,
1751473778.4154179,710.2637,789.12286,739.6478,834.6152,
1751473778.4193137,787.7068,921.88245,807.7977,1450.0,
1751473778.4232092,786.20215,819.392,776.2009,1234.7524,
1751473778.4271049,707.34296,587.9479,682.9152,228.16945,
1751473778.4310005,650.9644,540.597,650.7874,0.0,
1751473778.4348960,708.051,746.55133,723.7167,683.7118,
1751473778.4387918,794.3447,913.9169,798.239,1450.0,
1751473778.4426873,792.3091,839.30597,786.37915,1352.1119,
1751473778.4465828,709.99817,613.52625,701.5901,365.0003,
1751473778.4504786,644.4149,531.1268,648.57477,0.0,
1751473778.4543741,680.26,721.76953,699.3774,537.3222,
1751473778.4582696,772.48364,924.2721,785.4056,1450.0,
1751473778.4621654,804.25745,865.9464,792.3091,1450.0,
1751473778.4660609,735.311,634.85626,713.2729,515.0186,
1751473778.4699566,657.9564,525.5509,650.34485,0.0,
1751473778.4738522,679.906,680.083,681.4991,389.60507,
1751473778.4777477,770.97906,894.17993,771.51013,1370.3442,
1751473778.4816434,804.9655,884.7983,801.33673,1450.0,
1751473778.4855390,744.0731,670.70135,727.0799,666.71857,
1751473778.4894345,662.7358,522.3646,652.73456,0.0,
1751473778.4933302,665.745,649.1058,685.74744,249.14546,
1751473778.4972258,750.00305,887.0109,776.555,1255.9055,
1751473778.5011213,797.708,911.17316,802.8414,1450.0,
1751473778.5050170,755.4904,703.97974,726.9029,819.215,
1751473778.5089126,676.4542,538.73834,651.0529,0.0,
1751473778.5128083,660.08057,621.49176,669.9048,122.31582,
1751473778.5167038,737.2581,859.0429,757.6146,1125.7126,
1751473778.5205994,800.00916,934.1848,803.99194,1450.0,
1751473778.5244951,769.2089,746.37427,751.2421,972.5081,
1751473778.5283906,679.02094,532.6314,663.79785,1.5046084,
1751473778.5322862,648.2207,576.9731,661.7622,12.921931,
1751473778.5361819,721.5925,817.4449,751.0651,988.3507,
1751473778.5400774,797.708,925.15717,815.40924,1450.0,
1751473778.5439732,775.9354,777.086,766.6423,1106.8607,
1751473778.5478687,687.252,553.34186,663.4438,105.14558,
1751473778.5517642,656.2748,563.96265,648.3977,0.0,
1751473778.5556600,717.52124,793.5482,730.5317,846.56354,
1751473778.5595555,799.65515,925.77673,796.73444,1450.0,
1751473778.5634511,787.7068,811.24945,765.5802,1231.7433,
1751473778.5673468,696.98773,582.10645,681.3221,226.1338,
1751473778.5712423,648.57477,542.89813,650.8759,0.0,
1751473778.5751379,697.34174,749.64905,716.3706,687.429,
1751473778.5790336,785.4941,926.39624,793.9907,1450.0,
1751473778.5829291,798.5046,844.7934,776.555,1352.9084,
1751473778.5868249,718.14075,603.879,687.252,367.83252,
1751473778.5907204,659.1955,531.3923,640.6092,0.0,
1751473778.5946159,696.8107,727.1684,704.7763,536.34863,
1751473778.5985117,778.67914,912.3237,797.35394,1450.0,
1751473778.6024072,802.8414,859.4854,797.885,1449.3805,
1751473778.6063027,727.52246,641.0517,712.6534,507.31857,
1751473778.6101985,654.32764,524.93134,646.27356,0.0,
1751473778.6140940,681.2336,688.84515,681.76465,388.6315,
1751473778.6179895,766.3767,905.2432,763.279,1370.0787,
1751473778.6218853,797.6195,884.7098,784.3435,1450.0,
1751473778.6257808,734.2489,656.98285,716.63617,661.7622,
1751473778.6296766,650.25635,510.94733,650.16785,0.0,
1751473778.6335721,660.78864,641.2287,686.45544,243.65807,
1751473778.6374676,748.941,876.5672,777.79407,1250.5951,
1751473778.6413634,797.7965,917.2801,803.99194,1450.0,
1751473778.6452589,752.2157,715.6626,731.77075,812.4,
1751473778.6491544,663.3553,535.8176,649.3713,0.0,
1751473778.6530502,655.3897,611.40204,667.3381,121.25374,
1751473778.6569457,739.9133,839.57153,764.6066,1123.7655,
1751473778.6608412,801.1597,917.72266,809.9219,1450.0,
1751473778.6647370,763.54456,735.66504,752.65826,958.7896,
1751473778.6686325,669.7278,525.28534,661.23114,0.0,
1751473778.6725283,647.8667,570.77765,650.34485,14.515046,
1751473778.6764238,730.6202,829.7473,735.488,986.6691,
1751473778.6803193,800.45166,949.58496,800.6287,1450.0,
1751473778.6842151,770.448,787.2642,760.1813,1096.1515,
1751473778.6881106,681.94165,562.104,670.70135,100.80876,
1751473778.6920061,641.58276,565.7328,655.1242,0.0,
1751473778.6959019,701.1475,794.9643,734.0719,833.37604,
1751473778.6997974,786.9102,932.85724,804.6115,1450.0,
1751473778.7036932,784.255,796.73444,773.1032,1231.3893,
1751473778.7075887,701.9441,565.7328,680.7026,224.00964,
1751473778.7114842,650.6104,542.80963,645.3885,0.0,
1751473778.7153800,697.8728,748.0559,708.6706,686.45544,
1751473778.7192755,781.51135,919.6698,789.21136,1450.0,
1751473778.7231710,786.7332,849.3072,784.6976,1351.5809,
1751473778.7270668,708.9361,613.52625,704.15674,365.88538,
1751473778.7309623,644.3264,532.9854,649.1943,0.0,
1751473778.7348578,679.906,715.7511,703.89124,535.7291,
1751473778.7387536,770.094,909.226,788.68036,1450.0,
1751473778.7426491,790.36194,862.0521,788.1493,1450.0,
1751473778.7465448,717.3442,633.2631,708.7591,513.60254,
1751473778.7504404,642.82184,526.7015,647.24713,0.0,
1751473778.7543359,667.69214,679.46344,690.2612,389.8706,
1751473778.7582316,756.11,887.542,779.21014,1371.6719,
1751473778.7621272,797.531,892.2328,795.1413,1450.0,
1751473778.7660227,742.0375,679.46344,718.9373,658.1334,
1751473778.7699184,659.284,513.337,657.8679,0.0,
1751473778.7738140,666.89557,638.308,689.46466,245.69371,
1751473778.7777095,755.6675,883.02814,768.8549,1252.8077,
1751473778.7816052,807.26666,913.3858,800.9827,1450.0,
1751473778.7855008,754.7824,706.63495,737.7892,806.73566,
1751473778.7893965,663.3553,518.38184,657.24835,0.0,
1751473778.7932920,654.5932,602.99396,666.276,120.10316,
1751473778.7971876,734.3374,851.16583,758.0571,1120.8447,
1751473778.8010833,800.7172,926.04224,801.5138,1450.0,
1751473778.8049788,766.5538,735.84204,709.0246,959.9402,
1751473778.8088744,671.6749,525.19684,596.44446,0.0,
1751473778.8127701,649.99084,581.66394,588.74445,13.098944,
1751473778.8166656,735.311,834.9692,667.3381,983.7484,
1751473778.8205614,807.97473,939.67224,719.2913,1450.0,
1751473778.8244569,776.3779,770.448,671.05536,1102.8779,
1751473778.8283525,686.36694,556.0856,577.3271,104.70305,
1751473778.8322482,650.7874,569.1845,569.1845,0.0,
1751473778.8361437,714.24646,789.38837,657.15985,832.75653,
1751473778.8400393,790.00793,920.2008,717.78674,1450.0,
1751473778.8439350,784.9631,802.3103,693.00494,1230.9467,
1751473778.8478305,698.2268,570.60065,609.1009,223.21309,
1751473778.8517261,647.6012,536.0831,567.41437,0.0,
1751473778.8556218,703.97974,764.7836,636.44934,685.3934,
1751473778.8595173,786.9987,934.0963,723.2741,1450.0,
1751473778.8634131,795.3183,834.7922,714.33496,1344.7659,
1751473778.8673086,707.25446,600.6928,620.3412,355.26462,
1751473778.8712041,637.6885,529.1796,573.2558,0.0,
1751473778.8750999,677.69336,708.3165,639.37006,532.01184,
1751473778.8789954,770.1825,905.6858,724.4247,1450.0,
1751473778.8828909,799.3896,863.4682,727.96497,1449.2035,
1751473778.8867867,726.1948,638.92755,647.1586,505.0174,
1751473778.8906822,650.6989,535.9946,583.7881,0.0,
1751473778.8945777,676.3657,686.6325,638.92755,384.5602,
1751473778.8984735,767.4388,890.7282,736.9041,1368.5741,
1751473778.9023690,806.73566,898.2512,748.587,1450.0,
1751473778.9062648,741.0639,673.3565,668.40015,653.26556,
1751473778.9101603,662.6473,499.353,596.00195,0.0,
1751473778.9140558,675.39215,634.59076,627.1562,238.08215,
1751473778.9179516,755.2249,875.94763,716.54767,1244.3997,
1751473778.9218471,802.4873,908.34094,748.941,1450.0,
1751473778.9257426,751.4191,697.34174,682.7382,806.2931,
1751473778.9296384,659.3725,515.0186,607.33075,0.0,
1751473778.9335339,655.9208,619.1021,633.1746,121.51926,
1751473778.9374297,741.8605,851.07733,724.3362,1122.7034,
1751473778.9413252,803.99194,919.9353,764.7836,1450.0,
1751473778.9452207,768.14685,752.65826,715.30853,960.0287,
1751473778.9491165,677.0738,536.6142,638.2195,0.0,
1751473778.9530120,650.34485,571.30865,627.59875,10.886285,
1751473778.9569075,729.02704,820.4541,700.9705,979.41156,
1751473778.9608033,802.3988,934.8044,764.16406,1450.0,
1751473778.9646988,781.0688,784.255,735.311,1099.3378,
1751473778.9685943,696.7222,550.8637,651.4069,102.932915,
1751473778.9724901,655.9208,551.9258,632.46655,0.0,
1751473778.9763856,717.0787,791.07,713.3614,828.77374,
1751473778.9802814,794.6988,928.1664,788.4148,1450.0,
1751473778.9841769,783.19293,806.73566,761.15485,1228.557,
1751473778.9880724,697.25323,583.257,668.5772,221.08893,
1751473778.9919682,651.6725,551.9258,632.11255,0.0,
1751473778.9958637,703.44867,758.23413,698.0498,680.7026,
1751473778.9997592,784.9631,911.35016,774.51935,1450.0,
1751473779.0036550,791.1585,833.5531,764.25256,1348.4832,
1751473779.0075505,710.97174,609.1009,678.5784,359.6899,
1751473779.0114460,648.2207,519.2669,634.67926,0.0,
1751473779.0153418,693.536,718.40625,697.9613,534.0475,
1751473779.0192373,788.50336,920.3778,774.2538,1450.0,
1751473779.0231330,806.82416,860.459,775.8469,1449.115,
1751473779.0270286,732.7443,641.3172,699.73145,505.99097,
1751473779.0309241,654.7702,532.27734,640.2551,0.0,
1751473779.0348198,667.0726,681.85315,685.92444,384.82574,
1751473779.0387154,758.32263,896.92365,769.0319,1367.6891,
1751473779.0426109,802.0448,892.4098,785.93665,1450.0,
1751473779.0465066,739.5593,672.737,713.1844,659.461,
1751473779.0504022,657.6909,526.0819,637.8655,0.0,
1751473779.0542977,666.1875,649.81384,667.4266,241.5339,
1751473779.0581934,749.295,876.39014,766.1997,1247.3204,
1751473779.0620890,801.1597,896.0386,806.2046,1450.0,
1751473779.0659847,753.54333,694.1555,735.311,811.24945,
1751473779.0698802,664.15186,536.34863,645.3885,0.0,
1751473779.0737758,658.4874,624.58954,658.4874,119.92614,
1751473779.0776715,744.4271,857.5383,747.25934,1121.4644,
1751473779.0815670,804.08044,928.1664,792.0436,1450.0,
1751473779.0854626,766.4652,740.5329,748.1444,965.07355,
1751473779.0893583,682.38416,543.6947,668.8427,0.44253188,
1751473779.0932539,653.79663,582.903,660.70013,12.125374,
1751473779.0971496,722.12354,798.8586,750.26855,984.1909,
1751473779.1010451,796.2919,911.7042,810.54144,1450.0,
1751473779.1049407,776.2894,773.0147,762.8365,1104.1171,
1751473779.1088364,685.74744,562.8121,669.1967,104.79155,
1751473779.1127319,649.2828,571.04315,650.34485,0.0,
1751473779.1166275,717.60974,792.4861,732.8328,836.7393,
1751473779.1205232,796.11487,930.025,803.3724,1450.0,
1751473779.1244187,787.7953,811.33795,770.97906,1231.8318,
1751473779.1283143,696.7222,573.0788,675.7462,225.33723,
1751473779.1322100,642.2908,538.3843,643.08734,0.0,
1751473779.1361055,696.5452,757.5261,720.2649,683.3577,
1751473779.1400013,786.8217,922.05945,805.408,1450.0,
1751473779.1438968,799.3011,834.3496,788.50336,1349.8993,
1751473779.1477923,713.53845,603.702,695.83716,361.37155,
1751473779.1516881,645.477,529.1796,650.07935,0.0,
1751473779.1555836,688.93365,725.9293,711.41425,540.8625,
1751473779.1594791,779.21014,928.69745,798.5046,1450.0,
1751473779.1633749,797.7965,872.7614,796.20337,1449.646,
1751473779.1672704,726.9914,634.59076,710.97174,509.88525,
1751473779.1711659,653.79663,523.51526,647.9552,0.0,
1751473779.1750617,678.40137,681.2336,688.4911,392.5258,
1751473779.1789572,776.2894,896.2156,785.58264,1373.5305,
1751473779.1828530,813.2851,890.10864,802.3103,1450.0,
1751473779.1867485,744.0731,675.8347,721.06146,659.3725,
1751473779.1906440,657.42535,533.5165,654.6817,0.0,
1751473779.1945398,661.8507,657.9564,686.898,250.91559,
1751473779.1984353,751.7732,877.6293,773.1032,1253.7814,
1751473779.2023308,804.43445,912.5008,803.0184,1450.0,
1751473779.2062266,750.5341,714.689,737.8777,818.15295,
1751473779.2101221,659.284,521.9221,658.8415,0.0,
1751473779.2140179,653.6196,614.32275,676.3657,126.918144,
1751473779.2179134,744.0731,861.25555,767.4388,1132.5276,
1751473779.2218089,807.7977,926.7503,810.80695,1450.0,
1751473779.2257047,765.49164,739.8248,756.64105,967.99426,
1751473779.2296002,675.5692,530.59576,666.63007,1.0620766,
1751473779.2334957,651.584,589.36395,657.6024,14.957578,
1751473779.2373915,723.9822,837.0048,749.472,991.2714,
1751473779.2412870,798.9471,937.9906,817.1794,1450.0,
1751473779.2451825,781.4228,776.555,774.60785,1102.7894,
1751473779.2490783,691.2348,552.81085,683.8888,101.78233,
1751473779.2529738,646.8046,551.9258,657.24835,0.0,
1751473779.2568696,720.61896,782.04236,729.6466,849.4842,
1751473779.2607651,803.81494,932.2377,801.6023,1450.0,
1751473779.2646606,784.7861,811.9575,777.44,1230.0616,
1751473779.2685564,697.16473,582.903,687.7831,223.83263,
1751473779.2724519,651.1414,551.6603,647.24713,0.0,
1751473779.2763474,707.7855,760.80084,720.4419,691.8544,
1751473779.2802432,792.3976,929.31696,804.34595,1450.0,
1751473779.2841387,799.3896,836.7393,791.247,1347.9521,
1751473779.2880342,712.2108,600.7813,707.697,360.30948,
1751473779.2919300,648.8403,532.45435,652.55756,0.0,
1751473779.2958255,696.89923,718.7603,702.91766,544.8453,
1751473779.2997212,788.50336,914.80194,789.83093,1450.0,
1751473779.3036168,803.72644,870.0177,791.6896,1446.8137,
1751473779.3075123,724.3362,632.7321,712.1223,504.66336,
1751473779.3114080,647.1586,524.93134,650.6104,0.0,
1751473779.3153036,672.914,694.7751,693.536,398.36722,
1751473779.3191991,766.9078,907.3674,792.4861,1376.5397,
1751473779.3230948,803.1954,890.9052,810.3644,1450.0,
1751473779.3269904,737.7892,665.6565,724.1592,658.576,
