timestamps,eeg_1,eeg_2,eeg_3,eeg_4,note
1749130431.5687029,835.0577,1120.9332,963.746,1113.1448,
1749130431.5725942,1450.0,1450.0,1450.0,1450.0,
1749130431.5764852,1259.2688,1055.1731,1137.13,1048.535,
1749130431.5803764,244.72014,47.527924,120.457184,32.393333,
1749130431.5842674,0.0,0.0,0.0,0.0,
1749130431.5881586,707.52,969.05634,858.5119,1005.6095,
1749130431.5920498,1450.0,1450.0,1450.0,1450.0,
1749130431.5959408,1364.4143,1161.1152,1306.0886,1190.2338,
1749130431.5998321,380.84296,145.6815,308.0907,164.09082,
1749130431.6037230,0.0,0.0,0.0,0.0,
1749130431.6076143,551.1292,828.77374,696.19116,856.83026,
1749130431.6115053,1450.0,1450.0,1450.0,1450.0,
1749130431.6153965,1422.2975,1313.7887,1339.0131,1283.6965,
1749130431.6192877,446.24915,311.63095,338.3599,271.9801,
1749130431.6231787,0.0,0.0,0.0,0.0,
1749130431.6270700,416.24548,687.9601,547.6775,718.8488,
1749130431.6309609,1386.2754,1450.0,1450.0,1450.0,
1749130431.6348522,1450.0,1390.6122,1450.0,1395.3916,
1749130431.6387434,658.3989,426.2467,519.2669,432.7962,
1749130431.6426344,0.0,0.0,0.0,0.0,
1749130431.6465256,277.11346,527.76355,414.8294,573.52136,
1749130431.6504166,1284.316,1450.0,1385.1249,1450.0,
1749130431.6543078,1450.0,1450.0,1450.0,1450.0,
1749130431.6581991,805.1425,580.1593,668.9312,584.67316,
1749130431.6620901,0.0,0.0,0.0,0.0,
1749130431.6659813,153.55856,389.33957,269.32492,432.8847,
1749130431.6698723,1168.3727,1377.7788,1286.4402,1395.6571,
1749130431.6737635,1450.0,1450.0,1450.0,1450.0,
1749130431.6776545,948.6999,673.0025,748.4984,726.5489,
1749130431.6815457,0.0,0.0,0.0,0.0,
1749130431.6854370,46.288837,266.13867,158.3379,297.0274,
1749130431.6893280,1046.8534,1269.3585,1159.7876,1302.1058,
1749130431.6932192,1450.0,1450.0,1450.0,1450.0,
1749130431.6971102,1089.779,861.43256,963.569,884.0902,
1749130431.7010014,79.39022,0.0,0.0,0.0,
1749130431.7048926,0.0,125.14802,79.21321,166.12648,
1749130431.7087836,908.34094,1142.1748,1094.9124,1198.5533,
1749130431.7126749,1450.0,1450.0,1450.0,1450.0,
1749130431.7165658,1213.157,1006.406,1088.9824,1016.5843,
1749130431.7204571,197.36922,10.797778,86.73625,3.4517488,
1749130431.7243483,0.0,15.223097,0.0,35.845085,
1749130431.7282393,762.1284,1013.9291,896.3041,1056.8546,
1749130431.7321305,1450.0,1450.0,1450.0,1450.0,
1749130431.7360215,1332.9945,1116.1539,1247.8514,1146.5116,
1749130431.7399127,335.8817,99.65818,238.25917,112.845634,
1749130431.7438040,0.0,0.0,0.0,0.0,
1749130431.7476950,624.147,893.6489,763.279,937.19403,
1749130431.7515862,1450.0,1450.0,1450.0,1450.0,
1749130431.7554772,1420.2618,1245.1078,1330.0739,1259.3573,
1749130431.7593684,464.03894,232.68327,340.30704,242.06494,
1749130431.7632594,0.0,0.0,0.0,0.0,
1749130431.7671506,474.21716,749.64905,603.17096,781.4228,
1749130431.7710419,1427.2539,1450.0,1450.0,1450.0,
1749130431.7749329,1450.0,1356.1832,1423.8021,1360.343,
1749130431.7788241,607.5078,376.41763,468.28726,376.59464,
1749130431.7827151,0.0,0.0,0.0,0.0,
1749130431.7866063,339.42197,596.00195,483.59885,641.58276,
1749130431.7904975,1333.7026,1450.0,1427.7849,1450.0,
1749130431.7943885,1450.0,1449.7345,1450.0,1443.5391,
1749130431.7982798,755.4019,522.7187,613.70325,517.49677,
1749130431.8021708,0.0,0.0,0.0,0.0,
1749130431.8060620,203.21065,443.59396,318.53445,483.68735,
1749130431.8099532,1218.9098,1417.1642,1335.4728,1427.8734,
1749130431.8138442,1450.0,1450.0,1450.0,1450.0,
1749130431.8177354,894.35693,599.80774,657.8679,653.17706,
1749130431.8216264,0.0,0.0,0.0,0.0,
1749130431.8255177,83.37301,316.85284,207.54745,345.17487,
1749130431.8294086,1091.8147,1311.045,1205.5454,1337.1544,
1749130431.8332999,1450.0,1450.0,1450.0,1450.0,
1749130431.8371911,1029.5062,794.7873,900.28687,803.1954,
1749130431.8410821,32.30483,0.0,0.0,0.0,
1749130431.8449733,0.0,177.5438,141.96423,217.37166,
1749130431.8488643,964.454,1193.774,1164.3014,1237.6732,
1749130431.8527555,1450.0,1450.0,1450.0,1450.0,
1749130431.8566468,1166.514,958.6126,1054.996,958.9666,
1749130431.8605378,138.06995,0.0,14.16102,0.0,
1749130431.8644290,0.0,105.76512,69.389,97.97656,
1749130431.8683200,877.0097,1143.5024,1121.8184,1132.7931,
1749130431.8722112,1450.0,1450.0,1450.0,1450.0,
1749130431.8761024,1278.9171,1054.288,1166.337,1074.1134,
1749130431.8799934,280.03418,56.20155,173.20699,58.502716,
1749130431.8838847,0.0,0.0,0.0,0.0,
1749130431.8877757,664.9484,927.3698,791.6896,963.746,
1749130431.8916669,1450.0,1450.0,1450.0,1450.0,
1749130431.8955579,1377.3363,1182.2682,1267.7654,1197.8453,
1749130431.8994491,394.2074,167.63109,264.63406,174.00354,
1749130431.9033403,0.0,0.0,0.0,0.0,
1749130431.9072313,521.30255,792.1321,634.0597,830.0128,
1749130431.9111226,1450.0,1450.0,1450.0,1450.0,
1749130431.9150136,1450.0,1302.9023,1377.4248,1309.8059,
1749130431.9189048,537.7648,305.78955,393.23383,306.6746,
1749130431.9227960,0.0,0.0,0.0,0.0,
1749130431.9266870,384.20618,623.79297,516.2577,683.4462,
1749130431.9305782,1369.3707,1450.0,1450.0,1450.0,
1749130431.9344692,1450.0,1406.8973,1450.0,1402.7375,
1749130431.9383605,678.93243,438.81464,524.57733,439.69968,
1749130431.9422517,0.0,0.0,0.0,0.0,
1749130431.9461427,252.33168,499.79553,382.08203,537.7648,
1749130431.9500339,1261.4814,1445.0437,1358.4844,1450.0,
1749130431.9539249,1450.0,1450.0,1450.0,1450.0,
1749130431.9578161,832.13696,572.9018,710.88324,593.5238,
1749130431.9617074,0.0,0.0,0.0,0.0,
1749130431.9655983,127.6262,364.73477,239.32124,394.82697,
1749130431.9694896,1140.7587,1353.5281,1252.3652,1373.088,
1749130431.9733806,1450.0,1450.0,1450.0,1450.0,
1749130431.9772718,968.5253,719.2028,827.0036,733.45233,
1749130431.9811628,0.0,0.0,0.0,0.0,
1749130431.9850540,24.604773,217.54868,185.50937,268.8824,
1749130431.9889452,1015.6992,1228.911,1203.3328,1279.0942,
1749130431.9928362,1450.0,1450.0,1450.0,1450.0,
1749130431.9967275,1100.6653,882.23157,971.62305,888.51556,
1749130432.0006185,92.40066,0.0,0.0,0.0,
1749130432.0045097,0.0,111.34103,26.109383,136.1228,
1749130432.0084009,875.5936,1129.2529,1012.42444,1163.5934,
1749130432.0122919,1450.0,1450.0,1450.0,1450.0,
1749130432.0161831,1243.3376,1019.682,1132.7046,1026.32,
1749130432.0200741,226.93036,20.356466,125.502045,14.426539,
1749130432.0239654,0.0,6.0184336,0.0,19.55991,
1749130432.0278566,739.02826,1001.7152,876.03613,1033.489,
1749130432.0317476,1450.0,1450.0,1450.0,1450.0,
1749130432.0356388,1335.9153,1147.0427,1240.3284,1160.9381,
1749130432.0395298,340.30704,128.06873,227.99243,129.30782,
1749130432.0434210,0.0,0.0,0.0,0.0,
1749130432.0473120,590.8686,872.8499,737.6122,908.7835,
1749130432.0512033,1450.0,1450.0,1450.0,1450.0,
1749130432.0550945,1435.0425,1275.1115,1350.6073,1280.5988,
1749130432.0589855,483.1563,270.20996,363.5842,264.63406,
1749130432.0628767,0.0,0.0,0.0,0.0,
1749130432.0667677,445.5411,701.236,595.4709,773.3687,
1749130432.0706589,1421.0585,1450.0,1450.0,1450.0,
1749130432.0745502,1450.0,1373.265,1394.3295,1362.9982,
1749130432.0784411,569.9811,388.89703,406.15576,379.0728,
1749130432.0823324,0.0,0.0,0.0,0.0,
1749130432.0862234,330.39432,588.56744,476.69534,642.99884,
1749130432.0901146,1318.4795,1450.0,1408.3135,1450.0,
1749130432.0940058,1450.0,1450.0,1450.0,1450.0,
1749130432.0978968,784.6091,536.34863,683.8888,567.23737,
1749130432.1017880,0.0,0.0,0.0,0.0,
1749130432.1056790,185.33235,439.25717,309.77234,489.17474,
1749130432.1095703,1207.4926,1405.2158,1332.8175,1430.6171,
1749130432.1134613,1450.0,1450.0,1450.0,1450.0,
1749130432.1173525,888.60406,656.80585,663.97485,676.5428,
1749130432.1212437,0.0,0.0,0.0,0.0,
1749130432.1251347,83.727036,289.8584,252.33168,357.56577,
1749130432.1290259,1087.7434,1289.007,1245.0193,1341.4912,
1749130432.1329169,1450.0,1450.0,1450.0,1450.0,
1749130432.1368082,1054.0225,844.2623,936.9285,861.6981,
1749130432.1406994,51.422207,0.0,0.0,0.0,
1749130432.1445904,0.0,156.7448,68.0614,192.14735,
1749130432.1484816,940.29175,1178.3739,1073.4939,1221.211,
1749130432.1523726,1450.0,1450.0,1450.0,1450.0,
1749130432.1562638,1194.7476,988.5278,1084.4686,994.6347,
1749130432.1601551,176.1277,0.0,76.91204,0.0,
1749130432.1640460,0.0,44.430202,0.0,66.6453,
1749130432.1679373,800.5402,1060.0409,937.1055,1099.1608,
1749130432.1718283,1450.0,1450.0,1450.0,1450.0,
1749130432.1757195,1292.9896,1086.3273,1190.2338,1118.5436,
1749130432.1796105,288.08826,78.32815,178.07483,86.559235,
1749130432.1835017,0.0,0.0,0.0,0.0,
1749130432.1873930,643.5299,915.7755,783.28143,966.4896,
1749130432.1912839,1450.0,1450.0,1450.0,1450.0,
1749130432.1951752,1399.1089,1226.6099,1305.4691,1242.6295,
1749130432.1990662,427.13177,213.03485,302.3378,218.25673,
1749130432.2029574,0.0,0.0,0.0,0.0,
1749130432.2068486,500.68057,761.9514,661.49664,827.1806,
1749130432.2107396,1445.2207,1450.0,1450.0,1450.0,
1749130432.2146308,1450.0,1335.7383,1398.0468,1340.6061,
1749130432.2185218,569.45,344.1128,438.90314,352.6979,
1749130432.2224131,0.0,0.0,0.0,0.0,
1749130432.2263043,360.22095,615.9159,496.60928,664.32886,
1749130432.2301953,1351.5809,1450.0,1435.131,1450.0,
1749130432.2340865,1450.0,1413.1814,1450.0,1429.2896,
1749130432.2379775,709.2901,449.96643,601.3123,490.0598,
1749130432.2418687,0.0,0.0,0.0,0.0,
1749130432.2457600,228.70049,482.8908,352.4324,518.8244,
1749130432.2496510,1241.9215,1430.5286,1345.297,1445.3977,
1749130432.2535422,1450.0,1450.0,1450.0,1450.0,
1749130432.2574332,850.28076,610.42847,717.0787,632.9091,
1749130432.2613244,0.0,0.0,0.0,0.0,
1749130432.2652154,111.16401,328.53568,264.72256,366.94745,
1749130432.2691066,1117.2161,1324.6749,1277.4126,1353.1741,
1749130432.2729979,1450.0,1450.0,1450.0,1450.0,
1749130432.2768888,990.12085,763.102,855.4141,779.5642,
1749130432.2807801,7.9655743,0.0,0.0,0.0,
1749130432.2846711,2.832204,197.0152,104.96857,227.99243,
1749130432.2885623,981.2702,1213.0685,1110.578,1248.117,
1749130432.2924535,1450.0,1450.0,1450.0,1450.0,
1749130432.2963445,1120.0482,903.1191,980.8277,912.6778,
1749130432.3002357,111.96057,0.0,12.4794,0.0,
1749130432.3041267,0.0,79.47873,0.0,100.54324,
1749130432.3080180,832.93353,1089.8676,961.7103,1123.2345,
1749130432.3119092,1450.0,1450.0,1450.0,1450.0,
1749130432.3158002,1205.3684,1016.0532,1082.5215,1040.127,
1749130432.3196914,192.8554,26.640419,86.82476,29.030092,
1749130432.3235824,0.0,0.0,0.0,0.0,
1749130432.3274736,694.1555,964.89655,826.29553,1000.2991,
1749130432.3313646,1450.0,1450.0,1450.0,1450.0,
1749130432.3352559,1357.4224,1177.0464,1253.9584,1182.2682,
1749130432.3391471,367.567,162.40921,243.39255,157.36433,
1749130432.3430381,0.0,0.0,0.0,0.0,
1749130432.3469293,550.5097,811.42645,701.413,854.7061,
1749130432.3508203,1450.0,1450.0,1450.0,1450.0,
1749130432.3547115,1450.0,1297.1495,1357.5109,1297.3265,
1749130432.3586028,508.1151,291.80554,375.35556,288.17676,
1749130432.3624938,0.0,0.0,0.0,0.0,
1749130432.3663850,414.20984,680.7911,549.97864,721.32697,
1749130432.3702760,1389.6387,1450.0,1450.0,1450.0,
1749130432.3741672,1450.0,1385.2134,1450.0,1395.6571,
1749130432.3780584,654.6817,412.1742,552.63385,434.12378,
1749130432.3819494,0.0,0.0,0.0,0.0,
1749130432.3858407,279.68015,545.81885,405.62473,568.8305,
1749130432.3897316,1286.8827,1450.0,1381.4076,1450.0,
1749130432.3936229,1450.0,1450.0,1450.0,1450.0,
1749130432.3975139,799.74365,572.7248,673.7991,578.38916,
1749130432.4014051,0.0,0.0,0.0,0.0,
1749130432.4052963,172.49893,394.73843,301.62973,429.60995,
1749130432.4091873,1189.8798,1371.1409,1306.5311,1394.6835,
1749130432.4130785,1450.0,1450.0,1450.0,1450.0,
1749130432.4169695,938.3446,719.4683,806.2931,719.1143,
1749130432.4208608,0.0,0.0,0.0,0.0,
1749130432.4247520,45.049747,253.83629,156.12526,291.717,
1749130432.4286430,1041.1891,1263.3401,1167.6647,1298.3885,
1749130432.4325342,1450.0,1450.0,1450.0,1450.0,
1749130432.4364252,1079.8663,874.1775,946.0447,867.097,
1749130432.4403164,72.84075,0.0,0.0,0.0,
1749130432.4442077,0.0,132.84807,46.64286,157.01031,
1749130432.4480987,906.83636,1156.6898,1040.9235,1183.5958,
1749130432.4519899,1450.0,1450.0,1450.0,1450.0,
1749130432.4558809,1205.0144,997.7324,1096.1515,1009.4152,
1749130432.4597721,190.0232,2.6551914,89.92248,0.0,
1749130432.4636633,0.0,26.728926,0.0,39.208324,
1749130432.4675543,758.8537,1031.2764,893.11786,1059.8639,
1749130432.4714456,1450.0,1450.0,1450.0,1450.0,
1749130432.4753366,1320.4266,1134.7402,1212.1833,1136.6874,
1749130432.4792278,319.77356,118.15601,196.04163,109.128365,
1749130432.4831188,0.0,0.0,0.0,0.0,
1749130432.4870100,619.1021,883.20514,777.70557,921.2629,
1749130432.4909012,1450.0,1450.0,1450.0,1450.0,
1749130432.4947922,1418.4032,1261.6584,1324.6749,1254.7549,
1749130432.4986835,458.90558,249.14546,334.6426,238.52469,
1749130432.5025744,0.0,0.0,0.0,0.0,
1749130432.5064657,469.43784,747.8789,609.3664,770.1825,
1749130432.5103569,1436.1045,1450.0,1450.0,1450.0,
1749130432.5142479,1450.0,1368.6626,1405.3928,1345.12,
1749130432.5181391,551.2177,390.1361,428.72488,354.91058,
1749130432.5220301,0.0,0.0,0.0,0.0,
1749130432.5259213,336.67825,599.63074,468.11023,621.22626,
1749130432.5298126,1329.1003,1450.0,1418.2262,1450.0,
1749130432.5337036,1450.0,1443.8931,1450.0,1442.0344,
1749130432.5375948,739.7363,510.5048,611.31354,507.14154,
1749130432.5414858,0.0,0.0,0.0,0.0,
1749130432.5453770,220.55789,454.12622,343.67026,471.91602,
1749130432.5492680,1234.841,1409.6411,1336.8003,1421.855,
1749130432.5531592,1450.0,1450.0,1450.0,1450.0,
1749130432.5570505,884.4442,662.5588,752.3927,650.16785,
1749130432.5609415,0.0,0.0,0.0,0.0,
1749130432.5648327,84.34658,296.9389,198.6083,321.63217,
1749130432.5687237,1090.3986,1300.0702,1210.7672,1321.7543,
1749130432.5726149,1450.0,1450.0,1450.0,1450.0,
1749130432.5765061,1020.9211,811.7805,885.77185,787.4412,
1749130432.5803971,29.118599,0.0,0.0,0.0,
1749130432.5842884,0.0,179.31392,84.78911,194.2715,
1749130432.5881793,956.2229,1201.0316,1084.5571,1212.7144,
1749130432.5920706,1450.0,1450.0,1450.0,1450.0,
1749130432.5959618,1150.4059,939.1412,1047.827,940.7343,
1749130432.5998528,138.51248,0.0,50.80266,0.0,
1749130432.6037440,0.0,63.901604,0.0,67.441864,
1749130432.6076350,803.4609,1072.1663,936.5745,1084.1146,
1749130432.6115263,1450.0,1450.0,1450.0,1450.0,
1749130432.6154172,1219.1754,1098.5411,1111.2861,1054.5535,
1749130432.6193085,207.10492,84.34658,105.4996,47.88195,
1749130432.6231997,0.0,0.0,0.0,0.0,
1749130432.6270907,659.99207,913.82837,810.2759,952.3286,
1749130432.6309819,1450.0,1450.0,1450.0,1450.0,
1749130432.6348729,1373.973,1200.5005,1264.9331,1194.305,
1749130432.6387641,388.98553,184.27028,262.86395,175.06561,
1749130432.6426554,0.0,0.0,0.0,0.0,
1749130432.6465464,514.9301,779.7412,652.3805,804.877,
1749130432.6504376,1450.0,1450.0,1450.0,1450.0,
1749130432.6543286,1450.0,1299.3622,1405.3928,1313.4347,
1749130432.6582198,528.6486,294.63773,442.3549,308.62173,
1749130432.6621110,0.0,0.0,0.0,0.0,
1749130432.6660020,375.7981,649.1058,505.63693,670.96686,
1749130432.6698933,1364.7683,1450.0,1450.0,1450.0,
1749130432.6737843,1450.0,1403.5342,1450.0,1405.8353,
1749130432.6776755,672.6485,440.40775,538.73834,443.41696,
1749130432.6815667,0.0,0.0,0.0,0.0,
1749130432.6854577,261.53635,508.46915,376.50613,523.51526,
1749130432.6893489,1270.7745,1442.2999,1362.3787,1450.0,
1749130432.6932399,1450.0,1450.0,1450.0,1450.0,
1749130432.6971312,824.70245,605.2951,687.9601,589.541,
1749130432.7010221,0.0,0.0,0.0,0.0,
1749130432.7049134,125.502045,357.9198,248.08337,381.99353,
1749130432.7088046,1136.3334,1346.2705,1255.64,1363.8833,
1749130432.7126956,1450.0,1450.0,1450.0,1450.0,
1749130432.7165868,961.7988,754.7824,826.9151,738.3202,
1749130432.7204778,0.0,0.0,0.0,0.0,
1749130432.7243690,19.825428,226.93036,121.96179,242.50748,
1749130432.7282603,1003.92786,1245.3733,1125.7126,1258.0297,
1749130432.7321513,1450.0,1450.0,1450.0,1450.0,
1749130432.7360425,1097.5676,876.8327,985.3415,879.5764,
1749130432.7399335,89.037415,0.0,3.540255,0.0,
1749130432.7438247,0.0,117.18244,20.002441,124.35146,
1749130432.7477160,877.5408,1135.2714,1008.08765,1148.1047,
1749130432.7516069,1450.0,1450.0,1450.0,1450.0,
1749130432.7554982,1219.7949,1022.5142,1100.3998,1016.1417,
1749130432.7593892,205.42331,32.30483,111.518036,21.418543,
1749130432.7632804,0.0,0.0,0.0,0.0,
1749130432.7671714,733.5409,958.17004,798.9471,980.38513,
1749130432.7710626,1450.0,1450.0,1450.0,1450.0,
1749130432.7749538,1334.4106,1158.9025,1234.3984,1148.1932,
1749130432.7788448,339.59897,137.71593,215.69005,123.64341,
1749130432.7827361,0.0,0.0,0.0,0.0,
1749130432.7866271,574.93744,852.0509,729.5581,874.0005,
1749130432.7905183,1450.0,1450.0,1450.0,1450.0,
1749130432.7944095,1431.9447,1251.4802,1381.5846,1269.3585,
1749130432.7983005,472.8011,242.8615,412.61673,256.84552,
1749130432.8021917,0.0,0.0,0.0,0.0,
1749130432.8060827,431.02606,705.0418,572.5478,720.53046,
1749130432.8099740,1402.472,1450.0,1450.0,1450.0,
1749130432.8138652,1450.0,1367.6006,1439.5563,1366.7155,
1749130432.8177562,622.8194,386.8614,495.81274,381.551,
1749130432.8216474,0.0,0.0,0.0,0.0,
1749130432.8255384,306.3206,567.67993,434.74332,579.9823,
1749130432.8294296,1309.8059,1450.0,1402.5605,1450.0,
1749130432.8333206,1450.0,1450.0,1450.0,1450.0,
1749130432.8372118,765.49164,545.4648,634.4137,527.144,
1749130432.8411031,0.0,0.0,0.0,0.0,
1749130432.8449941,173.4725,414.8294,306.85162,435.6284,
1749130432.8488853,1186.428,1384.1512,1303.7875,1397.8698,
1749130432.8527763,1450.0,1450.0,1450.0,1450.0,
1749130432.8566675,916.9261,707.16595,795.1413,693.27045,
1749130432.8605587,0.0,0.0,0.0,0.0,
1749130432.8644497,64.698166,280.03418,175.50815,303.48837,
1749130432.8683410,1069.0686,1291.9276,1188.4636,1308.3898,
1749130432.8722320,1450.0,1450.0,1450.0,1450.0,
1749130432.8761232,1046.5879,821.51624,941.3538,835.0577,
1749130432.8800144,48.501495,0.0,0.0,0.0,
1749130432.8839054,0.0,159.84251,57.352135,173.91504,
1749130432.8877966,931.52966,1178.0199,1058.8903,1198.9958,
1749130432.8916876,1450.0,1450.0,1450.0,1450.0,
1749130432.8955789,1172.0015,969.05634,1065.5283,973.9242,
1749130432.8994699,158.51492,0.0,58.060184,0.0,
1749130432.9033611,0.0,27.968016,0.0,51.06818,
1749130432.9072523,783.10443,1022.42566,950.91254,1066.8558,
1749130432.9111433,1450.0,1450.0,1450.0,1450.0,
1749130432.9150345,1287.8563,1098.9836,1177.6659,1096.948,
1749130432.9189255,280.3882,88.68339,169.75523,77.88561,
1749130432.9228168,0.0,0.0,0.0,0.0,
1749130432.9267080,635.38727,896.56964,782.13086,932.68024,
1749130432.9305990,1450.0,1450.0,1450.0,1450.0,
1749130432.9344902,1394.595,1202.0936,1347.2441,1224.3087,
1749130432.9383812,416.334,187.72203,358.98187,202.76811,
1749130432.9422724,0.0,0.0,0.0,0.0,
1749130432.9461637,495.01617,765.22614,635.74133,791.8666,
1749130432.9500546,1443.4506,1450.0,1450.0,1450.0,
1749130432.9539459,1450.0,1325.1176,1400.8789,1326.9761,
1749130432.9578369,561.8385,328.44717,435.5399,327.7391,
1749130432.9617281,0.0,0.0,0.0,0.0,
1749130432.9656193,357.56577,629.36884,484.74942,653.17706,
1749130432.9695103,1349.5453,1450.0,1435.308,1450.0,
1749130432.9734015,1450.0,1426.9883,1450.0,1423.0056,
1749130432.9772925,707.16595,482.8023,569.1845,474.83673,
1749130432.9811838,0.0,0.0,0.0,0.0,
1749130432.9850748,229.23152,480.0586,366.06238,512.71747,
1749130432.9889660,1241.0365,1423.6251,1348.1292,1439.9103,
1749130432.9928572,1450.0,1450.0,1450.0,1450.0,
1749130432.9967482,856.74176,649.81384,733.2753,644.4149,
1749130433.0006394,0.0,0.0,0.0,0.0,
1749130433.0045304,106.9157,341.4576,224.00964,365.0003,
1749130433.0084217,1117.5701,1339.8096,1237.7617,1352.466,
1749130433.0123129,1450.0,1450.0,1450.0,1450.0,
1749130433.0162039,996.0508,757.7916,854.7061,785.2286,
1749130433.0200951,8.673625,0.0,0.0,0.0,
1749130433.0239861,7.08051,218.78777,112.04907,234.80742,
1749130433.0278773,992.77606,1230.9467,1117.9241,1253.9584,
1749130433.0317686,1450.0,1450.0,1450.0,1450.0,
1749130433.0356596,1128.8988,935.86646,1027.3821,930.5561,
1749130433.0395508,114.79277,0.0,14.515046,0.0,
1749130433.0434418,0.0,84.78911,36.19911,109.6594,
1749130433.0473330,851.16583,1102.7894,1047.7385,1140.4047,
1749130433.0512240,1450.0,1450.0,1450.0,1450.0,
1749130433.0551152,1247.5859,1070.7501,1144.476,1062.9615,
1749130433.0590065,233.92236,55.139473,130.36989,38.8543,
1749130433.0628974,0.0,0.0,0.0,1.858634,
1749130433.0667887,707.25446,973.6587,861.6096,1016.3187,
1749130433.0706797,1450.0,1450.0,1450.0,1450.0,
1749130433.0745709,1362.9982,1131.2886,1148.0162,1186.074,
1749130433.0784621,377.21417,120.7227,167.01154,157.62987,
1749130433.0823531,0.0,0.0,0.0,0.0,
1749130433.0862443,564.9362,840.5451,708.8476,875.6821,
1749130433.0901353,1450.0,1450.0,1450.0,1450.0,
1749130433.0940266,1450.0,1306.3541,1382.8236,1307.3278,
1749130433.0979178,513.0715,304.37344,413.76733,301.62973,
1749130433.1018088,0.0,0.0,0.0,0.0,
1749130433.1057000,424.03406,717.3442,586.00073,733.0098,
1749130433.1095910,1393.356,1450.0,1450.0,1450.0,
1749130433.1134822,1450.0,1450.0,1450.0,1412.6503,
1749130433.1173732,665.8335,557.05914,669.0197,467.75623,
1749130433.1212645,0.0,0.0,0.0,0.0,
1749130433.1251557,282.33536,536.26013,421.02484,581.0444,
1749130433.1290467,1290.069,1450.0,1398.9318,1450.0,
1749130433.1329379,1450.0,1450.0,1450.0,1450.0,
1749130433.1368289,800.7172,600.6043,684.1543,589.9835,
1749130433.1407201,0.0,0.0,0.0,0.0,
1749130433.1446114,155.24019,397.0396,277.733,428.90192,
1749130433.1485023,1170.5853,1376.5397,1279.0057,1393.002,
1749130433.1523936,1450.0,1450.0,1450.0,1450.0,
1749130433.1562846,940.11475,716.8132,841.7842,732.8328,
1749130433.1601758,0.0,0.0,0.0,0.0,
1749130433.1640670,48.855522,266.75824,150.37233,293.66415,
1749130433.1679580,1049.1547,1275.554,1168.4612,1301.3093,
1749130433.1718493,1450.0,1450.0,1450.0,1450.0,
1749130433.1757402,1078.2732,867.0085,961.6218,876.47864,
1749130433.1796315,71.77867,0.0,0.0,0.0,
1749130433.1835227,0.0,125.502045,83.815544,158.95746,
1749130433.1874137,908.16394,1143.0599,1100.7538,1188.1096,
1749130433.1913049,1450.0,1450.0,1450.0,1450.0,
1749130433.1951959,1203.0673,1014.90265,1089.5135,1014.3716,
1749130433.1990871,187.10248,13.45297,85.23164,2.2126594,
1749130433.2029781,0.0,18.409327,0.0,36.64164,
1749130433.2068694,765.9342,1023.39923,907.3674,1057.4742,
1749130433.2107606,1450.0,1450.0,1450.0,1450.0,
1749130433.2146516,1324.2324,1125.3586,1257.0562,1140.6702,
1749130433.2185428,322.87128,108.951355,251.35811,112.49161,
1749130433.2224338,0.0,0.0,0.0,0.0,
1749130433.2263250,624.147,887.896,756.81805,918.8732,
1749130433.2302163,1450.0,1450.0,1450.0,1450.0,
1749130433.2341073,1410.7916,1242.6295,1322.6393,1252.5422,
1749130433.2379985,443.8595,226.3108,326.41153,229.93958,
1749130433.2418895,0.0,0.0,0.0,0.0,
1749130433.2457807,487.93567,762.748,618.12854,796.20337,
1749130433.2496719,1438.4941,1450.0,1450.0,1450.0,
1749130433.2535629,1450.0,1340.3406,1405.3043,1345.5625,
1749130433.2574542,577.85815,355.79565,439.8767,356.6807,
1749130433.2613451,0.0,0.0,0.0,0.0,
1749130433.2652364,351.1933,591.3111,483.86438,648.8403,
1749130433.2691274,1342.2877,1450.0,1430.2631,1450.0,
1749130433.2730186,1450.0,1446.1942,1450.0,1441.5919,
1749130433.2769098,732.8328,511.47836,596.09045,513.86804,
1749130433.2808008,0.0,0.0,0.0,0.0,
1749130433.2846920,219.76134,461.73776,340.74954,499.2645,
1749130433.2885830,1234.3984,1419.1998,1329.1003,1434.2458,
1749130433.2924743,1450.0,1450.0,1450.0,1450.0,
1749130433.2963655,873.1154,635.03326,760.2698,658.2219,
1749130433.3002565,0.0,0.0,0.0,0.0,
1749130433.3041477,101.78233,329.95178,208.25551,364.02673,
1749130433.3080387,1113.4988,1324.9404,1222.7156,1349.2798,
1749130433.3119299,1450.0,1450.0,1450.0,1450.0,
1749130433.3158212,1014.2831,787.8838,889.3121,817.0024,
1749130433.3197122,19.028872,0.0,0.0,0.0,
1749130433.3236034,0.3540255,184.5358,152.31947,236.31203,
1749130433.3274944,986.93463,1199.7925,1174.9221,1257.2332,
1749130433.3313856,1450.0,1450.0,1450.0,1450.0,
1749130433.3352766,1147.3967,953.4792,1030.3027,976.6679,
1749130433.3391678,131.07794,0.0,33.98645,0.0,
1749130433.3430591,0.0,69.831535,0.0,99.9237,
1749130433.3469501,848.2451,1087.4779,981.53577,1139.2542,
1749130433.3508413,1450.0,1450.0,1450.0,1450.0,
1749130433.3547323,1315.9128,1090.133,1242.8065,1113.1448,
1749130433.3586235,314.02063,69.47751,235.69249,68.23842,
1749130433.3625147,0.0,0.0,0.0,0.0,
1749130433.3664057,711.41425,964.98505,844.0853,1026.674,
1749130433.3702970,1450.0,1450.0,1450.0,1450.0,
1749130433.3741879,1377.9558,1211.8293,1293.9633,1230.9467,
1749130433.3780792,400.66837,188.07605,290.65494,192.41287,
1749130433.3819704,0.0,0.0,0.0,0.0,
1749130433.3858614,574.3179,840.10254,698.1383,907.2789,
1749130433.3897526,1450.0,1450.0,1450.0,1450.0,
1749130433.3936436,1450.0,1330.2509,1394.8605,1346.713,
1749130433.3975348,551.4832,338.2714,428.72488,353.67148,
1749130433.4014258,0.0,0.0,0.0,0.0,
1749130433.4053171,438.81464,690.43823,581.84094,771.86414,
1749130433.4092083,1397.2502,1450.0,1450.0,1450.0,
1749130433.4130993,1450.0,1427.6079,1450.0,1430.7056,
1749130433.4169905,708.6706,493.68857,583.7881,509.08868,
1749130433.4208815,0.0,0.0,0.0,0.0,
1749130433.4247727,316.4103,558.6523,441.73532,637.5115,
1749130433.4286640,1314.3197,1450.0,1389.6387,1450.0,
1749130433.4325550,1450.0,1450.0,1450.0,1450.0,
1749130433.4364462,863.55676,628.92633,764.25256,668.9312,
1749130433.4403372,0.0,0.0,0.0,0.0,
1749130433.4442284,180.376,417.6616,292.42508,487.0506,
1749130433.4481196,1207.4926,1380.08,1295.7334,1417.2527,
1749130433.4520106,1450.0,1450.0,1450.0,1450.0,
1749130433.4559019,1005.9635,795.76086,903.2076,823.5519,
1749130433.4597929,0.0,0.0,0.0,0.0,
1749130433.4636841,63.724594,262.95245,220.38089,337.82886,
1749130433.4675753,1088.0974,1279.6252,1256.0825,1339.0131,
1749130433.4714663,1450.0,1450.0,1450.0,1450.0,
1749130433.4753575,1130.9344,932.94574,1020.3015,966.9322,
1749130433.4792485,98.59611,0.0,8.142587,0.0,
1749130433.4831398,0.0,123.20088,40.978455,174.8001,
1749130433.4870307,951.8861,1155.9818,1058.0052,1224.3972,
1749130433.4909220,1450.0,1450.0,1450.0,1450.0,
1749130433.4948132,1256.7905,1053.403,1153.0612,1091.7262,
1749130433.4987042,237.55112,31.685284,132.31703,32.481842,
1749130433.5025954,0.0,12.744919,0.0,48.767014,
1749130433.5064864,802.1333,1029.6832,908.695,1108.5424,
1749130433.5103776,1450.0,1450.0,1450.0,1450.0,
1749130433.5142689,1332.9945,1134.2092,1230.2386,1191.4729,
1749130433.5181599,341.01508,116.20888,218.25673,141.69872,
1749130433.5220511,0.0,0.0,0.0,0.0,
1749130433.5259421,643.5299,889.75464,753.01227,977.1104,
1749130433.5298333,1450.0,1450.0,1450.0,1450.0,
1749130433.5337245,1424.5101,1260.3308,1332.6405,1295.6449,
1749130433.5376155,477.3149,253.30525,340.30704,280.4767,
1749130433.5415068,0.0,0.0,0.0,0.0,
1749130433.5453978,491.1219,722.21204,612.1986,822.04724,
1749130433.5492890,1434.0688,1450.0,1450.0,1450.0,
1749130433.5531800,1450.0,1364.5028,1419.1113,1380.611,
1749130433.5570712,616.1814,383.85217,466.0746,417.13055,
1749130433.5609624,0.0,0.0,0.0,0.0,
1749130433.5648534,344.82086,573.96387,449.87793,657.6909,
1749130433.5687447,1337.5969,1450.0,1408.225,1450.0,
1749130433.5726357,1450.0,1442.1229,1450.0,1450.0,
1749130433.5765269,758.5882,497.49435,626.2711,558.0327,
1749130433.5804181,0.0,0.0,0.0,0.0,
1749130433.5843091,211.88428,441.38132,303.48837,502.89325,
1749130433.5882003,1228.203,1403.7997,1306.6196,1431.4137,
1749130433.5920913,1450.0,1450.0,1450.0,1450.0,
1749130433.5959826,904.44666,653.7081,751.0651,704.15674,
1749130433.5998738,0.0,0.0,0.0,0.0,
1749130433.6037648,137.45041,290.1239,249.14546,354.37955,
1749130433.6076560,1167.1337,1299.8047,1271.1287,1346.9785,
1749130433.6115470,1450.0,1450.0,1450.0,1450.0,
1749130433.6154382,1022.8682,773.8113,856.3877,829.9243,
1749130433.6193292,30.092169,0.0,0.0,0.0,
1749130433.6232204,0.0,172.0564,75.67295,215.15901,
1749130433.6271117,960.55975,1183.5073,1063.1387,1238.7352,
1749130433.6310027,1450.0,1450.0,1450.0,1450.0,
1749130433.6348939,1165.1865,948.3458,1012.69,978.88055,
1749130433.6387849,148.5137,0.0,37.96924,0.0,
1749130433.6426761,0.0,53.192333,0.0,77.00055,
1749130433.6465673,820.54266,1059.9524,915.15594,1108.0114,
1749130433.6504583,1450.0,1450.0,1450.0,1450.0,
1749130433.6543496,1271.3942,1063.0502,1146.8656,1100.3113,
1749130433.6582406,260.38577,57.263626,140.01709,67.530365,
1749130433.6621318,0.0,0.0,0.0,0.0,
1749130433.6660230,681.4106,942.94696,788.3263,992.51056,
1749130433.6699140,1450.0,1450.0,1450.0,1450.0,
1749130433.6738052,1378.4868,1209.8822,1276.1735,1222.8041,
1749130433.6776962,398.63272,196.13014,268.79388,194.53702,
1749130433.6815875,0.0,0.0,0.0,0.0,
1749130433.6854787,537.8533,780.9803,659.81506,850.36926,
1749130433.6893697,1450.0,1450.0,1450.0,1450.0,
1749130433.6932609,1450.0,1331.0475,1383.7087,1334.7646,
1749130433.6971519,544.6683,331.98743,408.1029,338.2714,
1749130433.7010431,0.0,0.0,0.0,0.0,
1749130433.7049341,404.38565,661.40814,517.14276,714.512,
1749130433.7088253,1381.7616,1450.0,1450.0,1450.0,
1749130433.7127166,1450.0,1407.163,1436.37,1406.8973,
1749130433.7166076,683.3577,446.42618,465.54355,453.50668,
1749130433.7204988,0.0,0.0,0.0,0.0,
1749130433.7243898,269.41342,516.3462,381.81653,570.1581,
1749130433.7282810,1275.908,1441.1494,1351.6694,1450.0,
1749130433.7321723,1450.0,1450.0,1450.0,1450.0,
1749130433.7360632,846.121,628.48376,721.681,651.584,
1749130433.7399545,0.0,0.0,0.0,0.0,
1749130433.7438455,157.71837,360.92902,275.69736,415.1834,
1749130433.7477367,1179.1705,1346.4475,1284.847,1381.5846,
1749130433.7516279,1450.0,1450.0,1450.0,1450.0,
1749130433.7555189,987.8197,780.5378,862.4946,797.26544,
1749130433.7594101,0.0,0.0,0.0,0.0,
1749130433.7633011,29.384117,222.77055,126.2101,265.87317,
1749130433.7671924,1031.8959,1240.7709,1139.6967,1282.2804,
1749130433.7710834,1450.0,1450.0,1450.0,1450.0,
1749130433.7749746,1118.2781,921.70544,994.19214,930.6446,
1749130433.7788658,102.13636,0.0,10.089727,0.0,
1749130433.7827568,0.0,103.55246,14.869072,128.86528,
1749130433.7866480,890.7282,1128.7218,1000.03357,1163.9474,
1749130433.7905390,1450.0,1450.0,1450.0,1450.0,
1749130433.7944303,1232.8938,1035.4362,1134.0322,1057.7397,
1749130433.7983215,217.01764,31.77379,121.607765,32.03931,
1749130433.8022125,0.0,0.0,0.0,10.532259,
1749130433.8061037,746.19727,992.1565,857.62683,1030.3027,
1749130433.8099947,1450.0,1450.0,1450.0,1450.0,
1749130433.8138859,1338.0394,1157.752,1238.9122,1168.0187,
1749130433.8177772,342.6082,144.53091,224.7177,139.39755,
1749130433.8216681,0.0,0.0,0.0,0.0,
1749130433.8255594,605.6492,830.0128,736.37305,887.6305,
1749130433.8294504,1450.0,1450.0,1450.0,1450.0,
1749130433.8333416,1436.193,1285.5552,1348.1292,1289.2725,
1749130433.8372326,491.74142,278.44107,365.79688,281.80432,
1749130433.8411238,0.0,0.0,0.0,0.0,
1749130433.8450150,455.63083,698.1383,577.85815,729.38104,
1749130433.8489060,1416.279,1450.0,1450.0,1450.0,
1749130433.8527973,1450.0,1424.3331,1450.0,1398.4893,
1749130433.8566883,624.324,486.8736,601.5779,438.3721,
1749130433.8605795,0.0,0.0,0.0,0.0,
1749130433.8644707,318.18042,551.6603,416.95355,586.26624,
1749130433.8683617,1316.7094,1450.0,1396.0111,1450.0,
1749130433.8722529,1450.0,1450.0,1450.0,1450.0,
1749130433.8761439,779.21014,550.24414,651.0529,571.04315,
1749130433.8800352,0.0,0.0,0.0,0.0,
1749130433.8839264,205.95435,403.58908,310.30338,438.19507,
1749130433.8878174,1223.6007,1377.0708,1312.461,1397.7812,
1749130433.8917086,1450.0,1450.0,1450.0,1450.0,
1749130433.8955996,920.2008,701.7671,789.83093,716.0166,
1749130433.8994908,0.0,0.0,0.0,0.0,
1749130433.9033821,69.389,261.0938,164.88739,296.58487,
1749130433.9072731,1076.9456,1270.5975,1176.9578,1303.699,
1749130433.9111643,1450.0,1450.0,1450.0,1450.0,
1749130433.9150553,1051.9868,843.5543,922.679,854.9716,
1749130433.9189465,47.085392,0.0,0.0,0.0,
1749130433.9228375,0.0,152.58499,62.396996,181.26106,
1749130433.9267287,953.4792,1173.7716,1058.8018,1208.9971,
1749130433.9306200,1450.0,1450.0,1450.0,1450.0,
1749130433.9345109,1182.6222,976.31384,1084.2031,999.50256,
1749130433.9384022,163.47128,0.0,75.93848,0.0,
1749130433.9422932,0.0,41.598,0.0,59.741806,
1749130433.9461844,813.1081,1047.473,920.6434,1090.31,
1749130433.9500756,1450.0,1450.0,1450.0,1450.0,
1749130433.9539666,1300.0702,1116.6849,1200.058,1134.7402,
1749130433.9578578,293.7527,109.21687,190.64275,105.67661,
1749130433.9617488,0.0,0.0,0.0,0.0,
1749130433.9656401,675.6577,859.928,756.3755,934.8929,
1749130433.9695313,1450.0,1450.0,1450.0,1450.0,
1749130433.9734223,1398.4008,1250.4181,1314.8507,1259.5343,
1749130433.9773135,432.7962,229.14302,311.63095,234.09937,
1749130433.9812045,0.0,0.0,0.0,0.0,
1749130433.9850957,529.6222,766.9963,648.8403,820.1001,
1749130433.9889867,1450.0,1450.0,1450.0,1450.0,
1749130433.9928780,1450.0,1343.7924,1430.8826,1359.5465,
1749130433.9967692,578.30066,353.58298,492.80353,376.1521,
1749130434.0006602,0.0,0.0,0.0,0.0,
1749130434.0045514,389.07404,633.3516,501.1231,681.1451,
1749130434.0084424,1368.1316,1450.0,1436.8125,1450.0,
1749130434.0123336,1450.0,1436.8125,1450.0,1441.9459,
1749130434.0162249,726.5489,503.5128,611.40204,520.68304,
1749130434.0201159,0.0,0.0,0.0,0.0,
1749130434.0240071,270.6525,497.14032,381.374,538.91534,
1749130434.0278981,1280.3333,1428.4929,1358.4844,1447.7874,
1749130434.0317893,1450.0,1450.0,1450.0,1450.0,
1749130434.0356805,874.266,673.6221,766.1112,676.5428,
1749130434.0395715,0.0,0.0,0.0,0.0,
1749130434.0434628,126.82964,341.3691,236.75456,388.80853,
1749130434.0473537,1147.0427,1332.2865,1248.2054,1364.1488,
1749130434.0512450,1450.0,1450.0,1450.0,1450.0,
1749130434.0551360,1006.58307,822.9323,901.7915,830.9864,
1749130434.0590272,6.992004,0.0,0.0,0.0,
1749130434.0629184,21.330038,208.43253,111.783554,242.8615,
1749130434.0668094,1024.2843,1234.2214,1127.1288,1265.3757,
1749130434.0707006,1450.0,1450.0,1450.0,1450.0,
1749130434.0745916,1143.8564,926.5733,1044.5522,973.4816,
1749130434.0784829,118.59855,0.0,33.278397,0.0,
1749130434.0823741,0.0,101.516815,9.027651,119.48361,
1749130434.0862651,898.8708,1123.4115,1010.3003,1163.5049,
1749130434.0901563,1450.0,1450.0,1450.0,1450.0,
1749130434.0940473,1269.447,1114.5608,1204.8373,1112.7906,
1749130434.0979385,240.64885,63.10505,126.564125,57.352135,
1749130434.1018298,0.0,13.364463,2.9207106,18.232313,
1749130434.1057208,827.7117,1060.5719,1080.7513,1069.5996,
1749130434.1096120,1450.0,1450.0,1450.0,1450.0,
1749130434.1135030,1354.5016,1214.6615,1279.1827,1223.2467,
1749130434.1173942,384.11768,192.67839,289.50436,183.56223,
1749130434.1212852,0.0,0.0,0.0,0.0,
1749130434.1251764,615.4733,855.7682,744.8697,921.2629,
1749130434.1290677,1450.0,1450.0,1450.0,1450.0,
1749130434.1329587,1450.0,1312.9036,1403.7112,1330.9589,
1749130434.1368499,529.1796,313.4011,455.36533,329.86328,
1749130434.1407409,0.0,0.0,0.0,0.0,
1749130434.1446321,473.50912,712.5649,588.3904,783.36993,
1749130434.1485233,1419.1113,1450.0,1450.0,1450.0,
1749130434.1524143,1450.0,1413.2699,1450.0,1420.7928,
1749130434.1563056,674.86115,468.72977,577.59265,490.23682,
1749130434.1601965,0.0,0.0,0.0,0.0,
1749130434.1640878,333.58054,566.0868,443.15143,636.00684,
1749130434.1679790,1328.1267,1450.0,1397.3387,1450.0,
1749130434.1718700,1450.0,1450.0,1450.0,1450.0,
1749130434.1757612,822.5783,624.94354,718.40625,646.27356,
1749130434.1796522,0.0,0.0,0.0,0.0,
1749130434.1835434,191.79332,397.65915,295.3458,469.88037,
1749130434.1874347,1213.334,1370.9637,1297.3265,1410.5261,
1749130434.1913257,1450.0,1450.0,1450.0,1450.0,
1749130434.1952169,959.0551,765.40314,848.7762,789.12286,
1749130434.1991079,0.0,0.0,0.0,0.0,
1749130434.2029991,75.49594,269.94446,169.66673,327.20807,
1749130434.2068901,1097.7446,1285.9092,1188.1096,1328.5692,
1749130434.2107813,1450.0,1450.0,1450.0,1450.0,
1749130434.2146726,1091.0182,867.89355,990.20935,927.5469,
1749130434.2185636,68.94647,0.0,0.0,0.0,
1749130434.2224548,0.0,147.54013,49.032536,184.00476,
1749130434.2263458,966.6667,1167.5762,1058.8903,1224.3972,
1749130434.2302370,1450.0,1450.0,1450.0,1450.0,
1749130434.2341282,1217.6708,1043.6672,1128.9873,1063.0502,
1749130434.2380192,193.47495,28.32204,99.48117,15.842642,
1749130434.2419105,0.0,11.328816,0.0,53.280838,
1749130434.2458014,831.0749,1021.62915,950.82404,1103.7631,
1749130434.2496927,1450.0,1450.0,1450.0,1450.0,
1749130434.2535839,1322.3738,1161.7347,1231.3008,1174.8336,
1749130434.2574749,324.28738,134.5297,216.5751,127.27217,
1749130434.2613661,0.0,0.0,0.0,0.0,
1749130434.2652571,690.34973,895.419,790.6275,975.69434,
1749130434.2691483,1450.0,1450.0,1450.0,1450.0,
1749130434.2730393,1416.633,1254.2239,1369.3707,1283.431,
1749130434.2769306,470.5884,240.82585,397.0396,263.92603,
1749130434.2808218,0.0,0.0,0.0,0.0,
1749130434.2847128,542.36707,758.7652,628.6608,826.1185,
1749130434.2886040,1450.0,1450.0,1450.0,1450.0,
1749130434.2924950,1450.0,1368.1316,1434.2458,1373.265,
1749130434.2963862,612.3756,390.49014,494.75067,401.0224,
1749130434.3002775,0.0,0.0,0.0,0.0,
1749130434.3041685,405.27072,623.2619,495.10468,676.3657,
1749130434.3080597,1374.327,1450.0,1428.4929,1450.0,
1749130434.3119507,1450.0,1450.0,1450.0,1450.0,
1749130434.3158419,772.39514,550.7752,646.5391,562.104,
1749130434.3197331,0.0,0.0,0.0,0.0,
1749130434.3236241,272.86517,470.85394,374.11646,533.782,
1749130434.3275154,1283.608,1411.9423,1350.2533,1441.9459,
1749130434.3314064,1450.0,1450.0,1450.0,1450.0,
1749130434.3352976,925.42267,714.866,801.42523,718.31775,
1749130434.3391886,0.0,0.0,0.0,0.0,
1749130434.3430798,136.74236,329.59775,221.44296,375.26706,
1749130434.3469710,1175.7188,1323.7899,1241.125,1360.166,
1749130434.3508620,1450.0,1450.0,1450.0,1450.0,
1749130434.3547533,985.076,862.7602,885.4178,838.95197,
1749130434.3586442,0.0,0.0,0.0,0.0,
1749130434.3625355,30.180676,187.63353,101.2513,224.45218,
1749130434.3664267,1031.7189,1216.4316,1106.0642,1249.7986,
1749130434.3703177,1450.0,1450.0,1450.0,1450.0,
1749130434.3742089,1169.0808,967.55176,1051.2788,976.22534,
1749130434.3780999,142.22975,0.0,38.500275,0.0,
1749130434.3819911,0.0,50.36013,5.13337,75.40743,
1749130434.3858824,888.073,1059.5984,1001.6267,1105.5332,
1749130434.3897734,1450.0,1450.0,1450.0,1450.0,
1749130434.3936646,1266.9688,1079.9548,1137.484,1074.3789,
1749130434.3975556,258.79266,73.28328,137.45041,66.114265,
1749130434.4014468,0.0,0.0,0.0,0.0,
1749130434.4053380,714.866,913.1203,791.07,925.06866,
1749130434.4092290,1450.0,1450.0,1450.0,1450.0,
1749130434.4131203,1344.4119,1166.691,1287.6793,1161.6462,
1749130434.4170113,352.6094,166.569,293.57565,161.96667,
1749130434.4209025,0.0,0.0,0.0,0.0,
1749130434.4247935,533.8705,725.39825,584.76166,697.25323,
1749130434.4286847,1450.0,1450.0,1450.0,1450.0,
1749130434.4325759,1440.8838,1251.8342,1325.8256,1198.7303,
1749130434.4364669,477.93445,241.88794,314.46317,187.98755,
1749130434.4403582,0.0,0.0,0.0,0.0,
1749130434.4442492,369.69113,563.87415,421.73288,505.1944,
1749130434.4481404,1369.5477,1450.0,1432.4757,1450.0,
1749130434.4520316,1450.0,1375.1237,1433.6263,1317.7715,
1749130434.4559226,604.23303,373.76245,430.2295,276.93646,
1749130434.4598138,0.0,0.0,0.0,0.0,
1749130434.4637048,231.00165,408.1029,297.55844,358.36234,
1749130434.4675961,1245.7273,1409.5526,1324.3209,1409.6411,
1749130434.4714873,1450.0,1450.0,1450.0,1427.9619,
1749130434.4753783,732.5673,504.7519,549.97864,378.63028,
1749130434.4792695,0.0,0.0,0.0,0.0,
1749130434.4831605,111.518036,287.99976,174.97711,228.43497,
1749130434.4870517,1105.9757,1309.8059,1183.0648,1279.1827,
1749130434.4909427,1450.0,1450.0,1450.0,1450.0,
1749130434.4948339,863.82227,613.70325,703.09467,487.0506,
1749130434.4987252,0.0,0.0,0.0,0.0,
1749130434.5026162,8.319599,167.10004,67.26485,111.96057,
1749130434.5065074,945.3366,1174.1256,1035.7017,1116.7734,
1749130434.5103984,1450.0,1450.0,1450.0,1450.0,
1749130434.5142896,987.9967,751.2421,816.2058,604.32153,
1749130434.5181808,39.11982,0.0,0.0,0.0,
1749130434.5220718,0.0,53.192333,7.257523,28.676067,
1749130434.5259631,781.95386,1005.25543,917.1916,944.8056,
1749130434.5298541,1450.0,1450.0,1450.0,1450.0,
1749130434.5337453,1130.669,935.2469,982.2438,770.97906,
1749130434.5376365,131.34346,0.0,42.30605,0.0,
1749130434.5415275,0.0,0.0,0.0,0.0,
1749130434.5454187,644.946,915.24445,768.5009,807.5322,
1749130434.5493097,1450.0,1450.0,1450.0,1450.0,
1749130434.5532010,1294.4943,1102.4354,1206.6959,955.6919,
1749130434.5570920,273.75024,98.15357,206.39688,24.339254,
1749130434.5609832,0.0,0.0,0.0,0.0,
1749130434.5648744,525.9049,826.6496,661.5852,706.1924,
1749130434.5687654,1450.0,1450.0,1450.0,1450.0,
1749130434.5726566,1390.3467,1251.3917,1304.4955,1145.3611,
1749130434.5765476,381.99353,235.86949,294.1067,137.89294,
1749130434.5804389,0.0,0.0,0.0,0.0,
1749130434.5843301,394.56143,717.2557,536.7912,602.4629,
1749130434.5882211,1398.4893,1450.0,1450.0,1450.0,
1749130434.5921123,1450.0,1380.611,1425.2183,1313.6117,
1749130434.5960033,521.39105,391.64072,426.42374,285.8756,
1749130434.5998945,0.0,0.0,0.0,0.0,
1749130434.6037858,311.89648,671.05536,622.5539,539.7119,
1749130434.6076767,1321.1348,1450.0,1450.0,1450.0,
1749130434.6115680,1450.0,1450.0,1450.0,1431.6792,
1749130434.6154590,658.93,560.06836,594.0548,460.05615,
1749130434.6193502,0.0,0.0,0.0,0.0,
1749130434.6232412,155.59421,446.24915,294.28372,396.15454,
1749130434.6271324,1157.4865,1402.649,1292.9896,1380.5225,
1749130434.6310236,1450.0,1450.0,1450.0,1450.0,
1749130434.6349146,808.6828,695.57166,751.6847,635.65283,
1749130434.6388059,0.0,0.0,0.0,0.0,
1749130434.6426969,50.006104,307.29416,162.76323,271.09503,
1749130434.6465881,1014.4601,1305.7346,1170.4968,1279.7137,
1749130434.6504793,1450.0,1450.0,1450.0,1450.0,
1749130434.6543703,954.8953,857.44977,887.4534,790.8045,
1749130434.6582615,15.311604,0.0,0.0,0.0,
1749130434.6621525,0.0,196.57266,115.67783,186.65996,
1749130434.6660438,852.936,1224.4857,1106.8607,1204.8373,
1749130434.6699350,1450.0,1450.0,1450.0,1450.0,
1749130434.6738260,1105.7987,1000.2106,1025.4349,950.29297,
1749130434.6777172,107.62376,0.0,38.8543,0.0,
1749130434.6816082,0.0,47.616432,0.0,47.704937,
1749130434.6854994,744.6042,1065.1743,927.7239,1051.6328,
1749130434.6893907,1450.0,1450.0,1450.0,1450.0,
1749130434.6932817,1255.286,1122.6149,1201.8281,1099.1608,
1749130434.6971729,239.05573,94.79033,189.9347,77.88561,
1749130434.7010639,0.0,0.0,0.0,0.0,
1749130434.7049551,616.97797,941.2653,794.7873,936.39746,
1749130434.7088461,1450.0,1450.0,1450.0,1450.0,
1749130434.7127373,1357.3339,1229.8846,1287.1483,1212.8029,
1749130434.7166286,353.22894,211.70726,284.90204,195.15657,
1749130434.7205195,0.0,0.0,0.0,0.0,
1749130434.7244108,475.9873,790.18494,635.38727,775.49286,
1749130434.7283018,1446.9022,1450.0,1450.0,1450.0,
1749130434.7321930,1450.0,1346.359,1392.6478,1322.1083,
1749130434.7360842,493.33456,363.6727,416.86505,321.9862,
1749130434.7399752,0.0,0.0,0.0,0.0,
1749130434.7438664,346.41397,621.40326,505.90247,625.8286,
1749130434.7477574,1349.9878,1450.0,1449.0265,1450.0,
1749130434.7516487,1450.0,1433.3608,1450.0,1412.2078,
1749130434.7555399,630.4309,491.38742,540.951,446.24915,
1749130434.7594309,0.0,0.0,0.0,0.0,
1749130434.7633221,222.0625,479.08502,359.95544,475.36777,
1749130434.7672131,1233.6904,1429.732,1343.0844,1431.5022,
1749130434.7711043,1450.0,1450.0,1450.0,1450.0,
1749130434.7749953,780.7148,612.9067,717.2557,589.6295,
1749130434.7788866,0.0,0.0,0.0,0.0,
1749130434.7827778,115.85485,351.37033,228.43497,339.59897,
1749130434.7866688,1115.0034,1336.3578,1237.1422,1332.729,
1749130434.7905600,1450.0,1450.0,1450.0,1450.0,
1749130434.7944510,937.1055,794.7873,867.451,759.56177,
1749130434.7983422,0.0,0.0,0.0,0.0,
1749130434.8022335,0.0,230.73613,193.65196,248.08337,
1749130434.8061244,939.0527,1249.2676,1213.5995,1262.7205,
1749130434.8100157,1450.0,1450.0,1450.0,1450.0,
1749130434.8139067,1097.4791,949.76196,1015.34515,917.2801,
1749130434.8177979,84.43508,0.0,12.567905,0.0,
1749130434.8216891,0.0,96.560455,26.994446,111.606544,
1749130434.8255801,880.3729,1122.7034,1030.1257,1138.4575,
1749130434.8294713,1450.0,1450.0,1450.0,1450.0,
1749130434.8333623,1248.648,1092.9652,1192.5349,1068.0065,
1749130434.8372536,229.58554,59.83031,164.71037,37.526703,
1749130434.8411446,0.0,0.0,0.0,9.735702,
1749130434.8450358,754.16284,1008.8842,894.17993,1033.7545,
1749130434.8489270,1450.0,1450.0,1450.0,1450.0,
1749130434.8528180,1319.0106,1181.2062,1187.7556,1170.0543,
1749130434.8567092,317.11835,153.20454,172.14491,134.97223,
1749130434.8606002,0.0,0.0,0.0,0.0,
1749130434.8644915,631.139,879.22235,767.2618,917.2801,
1749130434.8683827,1450.0,1450.0,1450.0,1450.0,
1749130434.8722737,1447.4333,1330.7819,1391.2318,1319.5416,
1749130434.8761649,522.8957,335.8817,426.42374,309.3298,
1749130434.8800559,0.0,0.0,0.0,0.0,
1749130434.8839471,503.5128,730.4431,660.87714,800.8057,
1749130434.8878384,1432.7412,1450.0,1450.0,1450.0,
1749130434.8917294,1450.0,1416.279,1450.0,1404.5077,
1749130434.8956206,673.268,475.8103,573.4328,458.109,
1749130434.8995116,0.0,0.0,0.0,0.0,
1749130434.9034028,358.45084,575.8225,485.4575,647.33563,
1749130434.9072940,1345.0315,1450.0,1438.9366,1450.0,
1749130434.9111850,1450.0,1450.0,1450.0,1450.0,
1749130434.9150763,817.62195,538.0303,603.25946,601.0468,
1749130434.9189672,0.0,0.0,0.0,0.0,
1749130434.9228585,221.53146,438.81464,356.5037,503.4243,
1749130434.9267495,1242.541,1389.2847,1326.4451,1426.3688,
1749130434.9306407,1450.0,1450.0,1450.0,1450.0,
1749130434.9345319,962.41833,753.72034,877.7178,762.4824,
1749130434.9384229,0.0,0.0,0.0,0.0,
1749130434.9423141,111.07551,281.89282,256.84552,362.1681,
1749130434.9462051,1146.4231,1289.2725,1281.9264,1350.0763,
1749130434.9500964,1450.0,1450.0,1450.0,1450.0,
1749130434.9539876,1096.063,905.2432,1012.9555,917.89966,
1749130434.9578786,60.36135,0.0,0.0,0.0,
1749130434.9617698,0.0,168.16212,107.09272,231.35567,
1749130434.9656608,1020.3015,1200.8545,1151.3795,1268.2964,
1749130434.9695520,1450.0,1450.0,1450.0,1450.0,
1749130434.9734433,1240.3284,1057.8282,1181.2947,1063.4927,
1749130434.9773343,208.167,18.32082,127.980225,0.0,
1749130434.9812255,0.0,48.944027,0.0,97.35702,
1749130434.9851165,882.93964,1091.3722,1025.0809,1164.4784,
1749130434.9890077,1450.0,1450.0,1450.0,1450.0,
1749130434.9928987,1319.5416,1158.0175,1254.5779,1175.7188,
1749130434.9967899,326.58853,123.82043,230.2051,115.323814,
1749130435.0006812,0.0,0.0,0.0,0.0,
1749130435.0045722,699.0234,941.5309,856.91876,1027.9131,
1749130435.0084634,1450.0,1450.0,1450.0,1450.0,
1749130435.0123544,1390.5237,1241.3905,1318.922,1260.6848,
1749130435.0162456,430.2295,237.63963,329.77478,244.72014,
1749130435.0201368,0.0,0.0,0.0,0.0,
1749130435.0240278,483.95288,717.0787,662.1162,810.0104,
1749130435.0279191,1447.5219,1450.0,1450.0,1450.0,
1749130435.0318100,1450.0,1321.7543,1383.4432,1328.1267,
1749130435.0357013,518.11633,323.4023,415.53745,340.30704,
1749130435.0395925,0.0,0.0,0.0,0.0,
1749130435.0434835,298.97455,551.0407,453.77222,601.0468,
1749130435.0473747,1324.2324,1450.0,1443.2736,1450.0,
1749130435.0512657,1450.0,1410.2606,1443.185,1399.1089,
1749130435.0551569,589.45245,422.26395,454.12622,417.3961,
1749130435.0590479,0.0,0.0,0.0,0.0,
1749130435.0629392,167.27705,425.09613,332.07593,449.3469,
1749130435.0668304,1164.2129,1402.3835,1321.4003,1417.1642,
1749130435.0707214,1450.0,1450.0,1450.0,1450.0,
1749130435.0746126,777.88257,588.0364,698.4923,590.6031,
1749130435.0785036,0.0,0.0,0.0,0.0,
1749130435.0823948,84.43508,294.54922,264.72256,326.32303,
1749130435.0862861,1067.564,1292.1931,1270.4205,1322.7278,
1749130435.0901771,1450.0,1450.0,1450.0,1450.0,
1749130435.0940683,935.0699,787.1757,884.6213,764.87213,
1749130435.0979593,0.0,0.0,0.0,0.0,
1749130435.1018505,17.170237,256.58,248.96844,235.42697,
1749130435.1057417,988.2622,1275.377,1277.5896,1253.7814,
1749130435.1096327,1450.0,1450.0,1450.0,1450.0,
1749130435.1135240,1070.8386,904.6237,1004.5474,904.18115,
1749130435.1174150,90.63053,0.0,18.497833,0.0,
1749130435.1213062,0.0,64.34414,3.1862297,77.443085,
1749130435.1251972,771.86414,1064.3777,978.88055,1089.248,
1749130435.1290884,1450.0,1450.0,1450.0,1450.0,
1749130435.1329796,1190.5878,1010.3003,1115.4459,1011.00836,
1749130435.1368706,184.00476,38.677288,120.7227,35.048527,
1749130435.1407619,0.0,0.0,0.0,0.0,
1749130435.1446528,595.0284,890.9052,787.8838,900.37537,
1749130435.1485441,1450.0,1450.0,1450.0,1450.0,
1749130435.1524353,1311.576,1140.2277,1228.1145,1120.4022,
1749130435.1563263,287.29172,141.34468,214.982,117.890495,
1749130435.1602175,0.0,0.0,0.0,0.0,
1749130435.1641085,468.64127,731.2397,683.2692,766.3767,
1749130435.1679997,1450.0,1450.0,1450.0,1450.0,
1749130435.1718910,1438.3171,1311.1335,1376.0087,1279.8907,
1749130435.1757820,446.42618,299.32858,392.26028,263.04095,
1749130435.1796732,0.0,0.0,0.0,0.0,
1749130435.1835642,357.9198,643.7954,586.9743,657.24835,
1749130435.1874554,1363.1753,1450.0,1450.0,1450.0,
1749130435.1913466,1450.0,1380.434,1450.0,1373.1765,
1749130435.1952376,587.9479,397.2166,571.13165,385.35678,
1749130435.1991289,0.0,0.0,0.0,0.0,
1749130435.2030199,230.91315,496.87482,453.41818,499.353,
1749130435.2069111,1242.541,1443.008,1400.5249,1450.0,
1749130435.2108021,1450.0,1450.0,1450.0,1450.0,
1749130435.2146933,744.1616,560.6879,722.9201,536.34863,
1749130435.2185845,0.0,0.0,0.0,0.0,
1749130435.2224755,162.85173,412.35123,375.44406,434.4778,
1749130435.2263668,1166.16,1367.6891,1349.6338,1388.665,
1749130435.2302577,1450.0,1450.0,1450.0,1450.0,
1749130435.2341490,943.655,804.25745,927.1043,756.99506,
1749130435.2380402,0.0,0.0,0.0,0.0,
1749130435.2419312,58.14869,296.14233,243.39255,353.05194,
1749130435.2458224,1065.1743,1303.9645,1275.2885,1342.4647,
1749130435.2497134,1450.0,1450.0,1450.0,1450.0,
1749130435.2536047,1104.8251,961.17926,1068.095,933.21124,
1749130435.2574959,84.43508,0.0,11.859855,0.0,
1749130435.2613869,0.0,154.17812,89.56846,206.39688,
1749130435.2652781,936.5745,1200.589,1146.0691,1249.0021,
1749130435.2691691,1450.0,1450.0,1450.0,1450.0,
1749130435.2730603,1201.8281,1044.6407,1152.884,1047.9155,
1749130435.2769513,189.66917,22.038088,114.35024,6.3724594,
1749130435.2808425,0.0,28.056522,0.0,59.12226,
1749130435.2847338,759.0307,1050.4822,969.49884,1105.6217,
1749130435.2886248,1450.0,1450.0,1450.0,1450.0,
1749130435.2925160,1315.6473,1165.8945,1236.0801,1163.5934,
1749130435.2964070,310.30338,141.69872,221.00043,118.68705,
1749130435.3002982,0.0,0.0,0.0,0.0,
1749130435.3041894,641.67126,886.30286,802.3103,974.54376,
1749130435.3080804,1450.0,1450.0,1450.0,1450.0,
1749130435.3119717,1431.5907,1311.222,1363.7063,1293.4323,
1749130435.3158627,482.71378,289.41586,370.6647,256.75702,
1749130435.3197539,0.0,0.0,0.0,0.0,
1749130435.3236451,555.90857,831.69446,752.56976,910.3766,
1749130435.3275361,1448.4069,1450.0,1450.0,1450.0,
1749130435.3314273,1450.0,1407.2515,1450.0,1403.7112,
1749130435.3353183,694.8636,460.85272,598.2146,448.0193,
1749130435.3392096,0.0,0.0,0.0,0.0,
1749130435.3431005,460.6757,711.06024,627.77576,796.3804,
1749130435.3469918,1399.9939,1450.0,1450.0,1450.0,
1749130435.3508830,1450.0,1450.0,1450.0,1450.0,
1749130435.3547740,875.85913,596.00195,621.40326,634.4137,
1749130435.3586652,0.0,0.0,0.0,0.0,
1749130435.3625562,340.30704,574.3179,513.69104,660.78864,
1749130435.3664474,1343.6154,1448.7609,1414.0664,1450.0,
1749130435.3703387,1450.0,1450.0,1450.0,1450.0,
1749130435.3742297,1030.9222,796.20337,907.19037,810.1874,
1749130435.3781209,0.0,0.0,0.0,0.0,
1749130435.3820119,188.96112,399.5178,345.4404,501.74265,
1749130435.3859031,1252.0112,1375.1237,1349.0143,1426.5458,
1749130435.3897943,1450.0,1450.0,1450.0,1450.0,
1749130435.3936853,1151.468,924.80316,1031.9844,955.6034,
1749130435.3975766,75.93848,0.0,0.0,0.0,
1749130435.4014676,36.73015,233.65685,178.78288,333.58054,
1749130435.4053588,1110.578,1272.1907,1238.6467,1352.466,
1749130435.4092500,1450.0,1450.0,1450.0,1450.0,
1749130435.4131410,1236.6111,1008.8842,1142.4403,1078.8927,
1749130435.4170322,187.89905,0.0,69.56602,0.0,
1749130435.4209232,0.0,105.32259,43.98767,183.11969,
1749130435.4248145,970.0299,1153.6807,1114.0298,1261.747,
1749130435.4287055,1450.0,1450.0,1450.0,1450.0,
1749130435.4325967,1326.9761,1139.2542,1247.8514,1191.4729,
1749130435.4364879,321.36667,91.6041,188.7841,90.45352,
1749130435.4403789,0.0,0.0,0.0,53.723373,
1749130435.4442701,831.60596,1017.91187,1018.61993,1159.4336,
1749130435.4481611,1450.0,1450.0,1450.0,1450.0,
1749130435.4520524,1411.4998,1252.9847,1335.5613,1291.0426,
1749130435.4559436,475.01373,220.73491,333.138,228.34645,
1749130435.4598346,0.0,0.0,0.0,0.0,
1749130435.4637258,690.34973,888.51556,863.91077,1038.0913,
1749130435.4676168,1450.0,1450.0,1450.0,1450.0,
1749130435.4715080,1450.0,1333.9681,1421.855,1376.8052,
1749130435.4753993,636.8034,339.68747,504.22083,390.93268,
1749130435.4792902,0.0,0.0,0.0,0.0,
1749130435.4831815,532.8084,742.48,697.8728,883.8247,
1749130435.4870725,1438.5826,1450.0,1450.0,1450.0,
1749130435.4909637,1450.0,1412.1193,1450.0,1439.3793,
1749130435.4948547,775.22736,470.23438,616.71246,538.2073,
1749130435.4987459,0.0,0.0,0.0,0.0,
1749130435.5026371,395.4465,602.0204,542.45557,736.28455,
1749130435.5065281,1369.8132,1450.0,1441.5919,1450.0,
1749130435.5104194,1450.0,1450.0,1450.0,1450.0,
1749130435.5143104,927.2813,623.61597,753.1893,701.6786,
1749130435.5182016,0.0,0.0,0.0,0.0,
1749130435.5220928,239.67528,434.12378,386.33035,573.52136,
1749130435.5259838,1273.8723,1389.6387,1361.9362,1450.0,
1749130435.5298750,1450.0,1450.0,1450.0,1450.0,
1749130435.5337660,1071.6353,785.4056,892.3213,863.4682,
1749130435.5376573,1.5046084,0.0,0.0,0.0,
1749130435.5415485,112.04907,298.08948,232.68327,413.6788,
1749130435.5454395,1181.2947,1310.4254,1260.5078,1388.3995,
1749130435.5493307,1450.0,1450.0,1450.0,1450.0,
1749130435.5532217,1192.6234,887.6305,1008.5302,1001.09564,
1749130435.5571129,119.74913,0.0,0.0,0.0,
1749130435.5610039,0.0,175.33113,94.79033,260.8283,
1749130435.5648952,1075.618,1204.5718,1134.1207,1309.0094,
1749130435.5687864,1450.0,1450.0,1450.0,1450.0,
1749130435.5726774,1311.8416,1064.1122,1134.6517,1136.0679,
1749130435.5765686,271.53757,23.542696,80.4523,27.525484,
1749130435.5804596,0.0,45.138252,12.125374,125.413536,
1749130435.5843508,978.3495,1088.6284,1056.8546,1222.5386,
1749130435.5882421,1450.0,1450.0,1450.0,1450.0,
1749130435.5921330,1405.6583,1195.1017,1247.1434,1247.763,
1749130435.5960243,427.4858,127.18366,180.11047,153.29305,
1749130435.5999153,0.0,0.0,0.0,12.656412,
1749130435.6038065,928.1664,1051.3673,1047.5615,1128.6333,
1749130435.6076977,1450.0,1450.0,1450.0,1450.0,
1749130435.6115887,1450.0,1253.8699,1349.1913,1338.3934,
1749130435.6154799,602.72845,242.8615,390.75568,306.4091,
1749130435.6193709,0.0,0.0,0.0,0.0,
1749130435.6232622,675.12665,821.2507,700.26245,982.50934,
1749130435.6271534,1450.0,1450.0,1450.0,1450.0,
1749130435.6310444,1450.0,1361.6707,1403.0917,1407.163,
1749130435.6349356,746.02026,389.33957,455.1883,463.6849,
1749130435.6388266,0.0,0.0,0.0,0.0,
1749130435.6427178,491.47592,656.62885,524.4888,808.24023,
1749130435.6466088,1419.4653,1450.0,1450.0,1450.0,
1749130435.6505001,1450.0,1438.9366,1450.0,1450.0,
1749130435.6543913,872.49585,519.8865,552.72235,603.34796,
1749130435.6582823,0.0,0.0,0.0,0.0,
1749130435.6621735,318.44595,480.41263,372.43484,642.64484,
1749130435.6660645,1328.1267,1423.3596,1358.0419,1450.0,
1749130435.6699557,1450.0,1450.0,1450.0,1450.0,
1749130435.6738470,1001.7152,663.53235,685.65894,750.7996,
1749130435.6777380,0.0,0.0,0.0,0.0,
1749130435.6816292,164.35634,349.5117,235.24995,480.76666,
1749130435.6855202,1218.6443,1342.3762,1239.7089,1414.8629,
1749130435.6894114,1450.0,1450.0,1450.0,1450.0,
1749130435.6933026,1121.2874,789.83093,854.26355,901.43744,
1749130435.6971936,57.17512,0.0,0.0,0.0,
1749130435.7010849,36.110603,223.3901,114.35024,324.6414,
1749130435.7049758,1098.0986,1242.01,1124.208,1338.9244,
1749130435.7088671,1450.0,1450.0,1450.0,1450.0,
1749130435.7127581,1226.6984,933.12274,972.33105,1034.2855,
1749130435.7166493,180.28749,0.0,0.0,0.0,
1749130435.7205405,0.0,87.17878,43.722153,168.16212,
1749130435.7244315,960.73676,1105.6217,1041.7201,1234.841,
1749130435.7283227,1450.0,1450.0,1450.0,1450.0,
1749130435.7322137,1315.2933,1067.2985,1093.7618,1142.6173,
1749130435.7361050,311.45395,53.369347,97.622536,66.91082,
1749130435.7399962,0.0,0.0,0.0,34.96002,
1749130435.7438872,794.1677,976.7564,857.62683,1110.8435,
1749130435.7477784,1450.0,1450.0,1450.0,1450.0,
1749130435.7516694,1374.0615,1173.9486,1266.3492,1257.9412,
1749130435.7555606,404.9167,159.66551,264.28006,206.7509,
1749130435.7594519,0.0,0.0,0.0,0.0,
1749130435.7633429,627.59875,829.6588,699.73145,974.54376,
1749130435.7672341,1450.0,1450.0,1450.0,1450.0,
1749130435.7711251,1450.0,1265.9952,1321.0463,1322.9048,
1749130435.7750163,574.76044,258.26163,324.81842,319.154,
1749130435.7789073,0.0,0.0,0.0,0.0,
1749130435.7827985,462.53433,683.7118,538.64984,806.3816,
1749130435.7866898,1411.4998,1450.0,1450.0,1450.0,
1749130435.7905807,1450.0,1371.3179,1415.3055,1402.472,
1749130435.7944720,708.3165,395.712,438.99164,456.5159,
1749130435.7983630,0.0,0.0,0.0,0.0,
1749130435.8022542,303.57687,504.9289,394.56143,643.6184,
1749130435.8061454,1307.9473,1450.0,1391.4973,1450.0,
1749130435.8100364,1450.0,1450.0,1450.0,1450.0,
1749130435.8139277,834.7922,522.9842,549.62463,587.3283,
1749130435.8178186,0.0,0.0,0.0,0.0,
1749130435.8217099,160.28505,372.61185,246.13625,474.12866,
1749130435.8256011,1183.6843,1370.8752,1260.0653,1419.7308,
1749130435.8294921,1450.0,1450.0,1450.0,1450.0,
1749130435.8333833,941.0883,622.6424,680.5256,705.0418,
1749130435.8372743,0.0,0.0,0.0,0.0,
1749130435.8411655,32.570347,231.62119,102.04785,292.07104,
1749130435.8450565,1021.98315,1256.4365,1126.7747,1315.9128,
1749130435.8489478,1450.0,1450.0,1450.0,1450.0,
1749130435.8528390,1043.1362,690.7923,612.9952,732.12476,
1749130435.8567300,62.839527,0.0,0.0,0.0,
1749130435.8606212,0.0,96.383446,54.077396,139.92859,
1749130435.8645122,840.8991,1068.803,961.9758,1145.8921,
1749130435.8684034,1450.0,1450.0,1450.0,1450.0,
1749130435.8722947,1150.6714,881.1695,891.7903,870.3717,
1749130435.8761857,151.96545,0.0,6.726485,0.0,
1749130435.8800769,0.0,3.0977232,0.0,16.904718,
1749130435.8839679,660.78864,937.017,758.9422,972.06555,
1749130435.8878591,1450.0,1450.0,1450.0,1450.0,
1749130435.8917503,1279.7137,1016.6728,1046.6764,974.1012,
1749130435.8956413,262.33292,50.006104,87.70982,28.676067,
1749130435.8995326,0.0,0.0,0.0,0.0,
1749130435.9034235,510.3278,807.08966,607.7733,810.98395,
1749130435.9073148,1450.0,1450.0,1450.0,1450.0,
1749130435.9112060,1385.3019,1150.7599,1192.5349,1112.0826,
1749130435.9150970,368.54056,143.64586,174.7116,116.38589,
1749130435.9189882,0.0,0.0,0.0,0.0,
1749130435.9228792,401.1994,702.2096,499.2645,682.9152,
1749130435.9267704,1401.8525,1450.0,1450.0,1450.0,
1749130435.9306614,1450.0,1304.1415,1337.9509,1259.7998,
1749130435.9345527,520.77155,298.08948,308.26773,240.0293,
1749130435.9384439,0.0,0.0,0.0,0.0,
1749130435.9423349,282.7779,561.573,401.90747,558.2097,
1749130435.9462261,1298.654,1450.0,1419.5538,1450.0,
1749130435.9501171,1450.0,1406.1893,1438.0516,1365.565,
1749130435.9540083,653.00006,424.03406,427.3973,353.14044,
1749130435.9578996,0.0,0.0,0.0,0.0,
1749130435.9617906,152.49649,414.8294,262.68692,402.527,
1749130435.9656818,1157.929,1410.2606,1287.4138,1416.633,
1749130435.9695728,1450.0,1450.0,1450.0,1450.0,
1749130435.9734640,776.46643,526.7015,576.9731,462.62283,
1749130435.9773552,0.0,0.0,0.0,0.0,
1749130435.9812462,39.208324,273.04218,134.88373,239.49826,
1749130435.9851375,991.9795,1289.892,1139.6082,1279.2712,
1749130435.9890285,1450.0,1450.0,1450.0,1450.0,
1749130435.9929197,890.37415,656.80585,683.8888,549.80164,
1749130435.9968107,0.0,0.0,0.0,0.0,
1749130436.0007019,0.0,190.20021,98.33059,126.38711,
1749130436.0045931,816.1173,1195.2787,1042.5166,1121.3759,
1749130436.0084841,1450.0,1450.0,1450.0,1450.0,
1749130436.0123754,1049.9512,829.6588,871.96484,710.70624,
1749130436.0162663,76.64652,0.0,0.0,0.0,
1749130436.0201576,0.0,58.41421,0.0,46.20033,
1749130436.0240488,689.7302,1033.312,901.34894,994.7232,
1749130436.0279398,1450.0,1450.0,1450.0,1450.0,
1749130436.0318310,1197.0488,974.1012,1044.9062,854.9716,
1749130436.0357220,181.43808,11.24031,76.381004,0.0,
1749130436.0396132,0.0,0.0,0.0,0.0,
1749130436.0435045,568.8305,924.98016,784.52057,863.55676,
1749130436.0473955,1450.0,1450.0,1450.0,1450.0,
1749130436.0512867,1327.2417,1113.4103,1178.1969,1019.06244,
1749130436.0551777,306.3206,122.31582,198.25429,62.928036,
1749130436.0590689,0.0,0.0,0.0,0.0,
1749130436.0629599,393.8534,743.9846,445.2756,689.46466,
1749130436.0668511,1412.6503,1450.0,1450.0,1450.0,
1749130436.0707424,1450.0,1273.9608,1351.0499,1191.3844,
1749130436.0746334,452.17908,256.31448,297.55844,170.28627,
1749130436.0785246,0.0,0.0,0.0,0.0,
1749130436.0824156,350.30826,663.62085,526.613,613.3492,
1749130436.0863068,1352.7314,1450.0,1450.0,1450.0,
1749130436.0901980,1450.0,1391.3203,1419.7308,1328.1267,
1749130436.0940890,618.6596,417.4846,443.15143,308.35623,
1749130436.0979803,0.0,0.0,0.0,0.0,
1749130436.1018713,250.03052,550.8637,396.06604,517.93933,
1749130436.1057625,1256.4365,1450.0,1378.2213,1450.0,
1749130436.1096537,1450.0,1450.0,1450.0,1448.8494,
1749130436.1135447,796.64594,554.0499,622.2883,485.6345,
1749130436.1174359,0.0,0.0,0.0,0.0,
1749130436.1213269,148.4252,420.22827,263.92603,405.44772,
1749130436.1252182,1160.3186,1386.8949,1275.2,1385.3904,
1749130436.1291094,1450.0,1450.0,1450.0,1450.0,
1749130436.1330004,942.85846,714.7775,746.10876,650.07935,
1749130436.1368916,0.0,0.0,0.0,0.0,
1749130436.1407826,7.257523,265.60764,201.44052,284.19397,
1749130436.1446738,971.0035,1280.9528,1213.5995,1296.7954,
1749130436.1485648,1450.0,1450.0,1450.0,1450.0,
1749130436.1524560,1068.5375,831.3404,853.64404,760.53534,
1749130436.1563473,69.92004,0.0,0.0,0.0,
1749130436.1602383,0.0,125.05951,32.21632,129.83885,
1749130436.1641295,866.8315,1138.9,988.4392,1139.7852,
1749130436.1680205,1450.0,1450.0,1450.0,1450.0,
1749130436.1719117,1195.4557,954.8953,977.907,874.0005,
1749130436.1758029,184.6243,0.0,33.632423,0.0,
1749130436.1796939,0.0,23.98523,0.0,26.197887,
1749130436.1835852,716.54767,1011.36237,832.5795,989.0588,
1749130436.1874762,1450.0,1450.0,1450.0,1450.0,
1749130436.1913674,1299.2737,1064.4662,1113.2333,1011.71643,
1749130436.1952586,288.2653,68.85796,123.82043,39.473846,
1749130436.1991496,0.0,0.0,0.0,0.0,
1749130436.2030408,581.3099,885.2408,690.9693,860.282,
1749130436.2069318,1450.0,1450.0,1450.0,1450.0,
1749130436.2108231,1410.1721,1213.688,1248.471,1160.3186,
1749130436.2147141,431.3801,202.06006,234.4534,149.48727,
1749130436.2186053,0.0,0.0,0.0,0.0,
1749130436.2224965,452.17908,737.2581,574.14087,731.85925,
1749130436.2263875,1420.4388,1450.0,1450.0,1450.0,
1749130436.2302787,1450.0,1337.5969,1364.1488,1294.0518,
1749130436.2341697,577.0616,341.7231,363.05316,281.89282,
1749130436.2380610,0.0,0.0,0.0,0.0,
1749130436.2419522,328.8897,614.32275,439.8767,610.16296,
1749130436.2458432,1327.8612,1450.0,1419.1113,1450.0,
1749130436.2497344,1450.0,1417.5182,1450.0,1403.0032,
1749130436.2536254,723.1856,458.64005,526.0819,425.9812,
1749130436.2575166,0.0,0.0,0.0,0.0,
1749130436.2614079,196.30714,475.72177,302.86884,465.54355,
1749130436.2652988,1210.1477,1426.4573,1314.2312,1431.3252,
1749130436.2691901,1450.0,1450.0,1450.0,1450.0,
1749130436.2730811,859.751,614.7653,646.27356,561.48444,
1749130436.2769723,0.0,0.0,0.0,0.0,
1749130436.2808633,79.832756,324.81842,246.13625,337.2093,
1749130436.2847545,1070.7501,1322.4623,1258.6492,1337.5969,
1749130436.2886457,1450.0,1450.0,1450.0,1450.0,
1749130436.2925367,999.85657,763.72156,790.00793,701.5901,
1749130436.2964280,18.055302,0.0,0.0,0.0,
1749130436.3003190,0.0,199.13936,92.931694,208.07849,
1749130436.3042102,950.20447,1214.219,1077.4767,1221.3881,
1749130436.3081014,1450.0,1450.0,1450.0,1450.0,
1749130436.3119924,1145.8036,914.3594,946.0447,850.5463,
1749130436.3158836,131.52048,0.0,0.0,0.0,
1749130436.3197746,0.0,92.48917,4.956357,103.46396,
1749130436.3236659,824.70245,1110.224,958.6126,1109.339,
1749130436.3275571,1450.0,1450.0,1450.0,1450.0,
1749130436.3314481,1276.439,1056.7661,1127.3943,1040.658,
1749130436.3353393,260.20874,39.473846,113.996216,22.834646,
1749130436.3392303,0.0,2.2126594,0.0,13.010438,
1749130436.3431215,721.85803,1013.4865,864.97284,1028.6211,
1749130436.3470125,1450.0,1450.0,1450.0,1450.0,
1749130436.3509037,1392.2938,1224.1317,1268.3849,1202.9786,
1749130436.3547950,422.1754,195.42209,253.9248,164.00232,
1749130436.3586860,0.0,0.0,0.0,0.0,
1749130436.3625772,614.8538,877.6293,761.06635,918.6077,
1749130436.3664682,1450.0,1450.0,1450.0,1450.0,
1749130436.3703594,1450.0,1343.8809,1378.1328,1323.7014,
1749130436.3742507,595.55945,351.1048,410.40408,315.34824,
1749130436.3781416,0.0,0.0,0.0,0.0,
1749130436.3820329,498.99896,755.3134,626.5367,801.2482,
1749130436.3859239,1422.4745,1450.0,1450.0,1450.0,
1749130436.3898151,1450.0,1408.933,1450.0,1416.8986,
1749130436.3937063,761.9514,468.55276,587.5054,483.1563,
1749130436.3975973,0.0,0.0,0.0,0.0,
1749130436.4014885,356.94623,607.8618,468.8183,657.33685,
1749130436.4053795,1345.297,1450.0,1414.7744,1450.0,
1749130436.4092708,1450.0,1450.0,1450.0,1450.0,
1749130436.4131620,909.226,619.5447,696.19116,637.5115,
1749130436.4170530,0.0,0.0,0.0,0.0,
1749130436.4209442,225.86827,442.08936,341.98865,505.28293,
1749130436.4248352,1261.57,1399.9054,1338.3934,1429.6436,
1749130436.4287264,1450.0,1450.0,1450.0,1450.0,
1749130436.4326174,1018.26587,741.8605,809.0368,768.6779,
1749130436.4365087,0.0,0.0,0.0,0.0,
1749130436.4403999,68.23842,281.3618,176.39322,343.22772,
1749130436.4442909,1105.2677,1293.7863,1195.9867,1341.8452,
1749130436.4481821,1450.0,1450.0,1450.0,1450.0,
1749130436.4520731,1125.1816,853.29,905.8628,881.258,
1749130436.4559643,98.06507,0.0,0.0,0.0,
1749130436.4598556,0.0,145.6815,51.953243,180.64153,
1749130436.4637465,941.4423,1163.4164,1037.2948,1215.0156,
1749130436.4676378,1450.0,1450.0,1450.0,1450.0,
1749130436.4715288,1160.6726,1018.61993,1035.1707,987.9082,
1749130436.4754200,153.38156,11.948361,51.953243,0.0,
1749130436.4793112,0.0,18.32082,0.0,54.96246,
1749130436.4832022,766.4652,1025.2579,868.8671,1078.1847,
1749130436.4870934,1450.0,1450.0,1450.0,1450.0,
1749130436.4909844,1319.8071,1088.7169,1148.2817,1106.3297,
1749130436.4948757,320.03906,86.64774,144.08838,80.71782,
1749130436.4987667,0.0,0.0,0.0,0.0,
1749130436.5026579,624.85504,876.03613,751.8617,949.58496,
1749130436.5065491,1450.0,1450.0,1450.0,1450.0,
1749130436.5104401,1413.2699,1217.0513,1264.1366,1221.2996,
1749130436.5143313,451.0285,202.76811,261.0938,200.90948,
1749130436.5182223,0.0,0.0,0.0,0.0,
1749130436.5221136,468.8183,745.66626,587.4168,794.9643,
1749130436.5260048,1436.547,1450.0,1450.0,1450.0,
1749130436.5298958,1450.0,1350.7843,1386.0984,1322.3738,
1749130436.5337870,545.99585,357.47726,387.92346,320.3046,
1749130436.5376780,0.0,0.0,0.0,0.0,
1749130436.5415692,345.08636,618.21704,463.24237,659.81506,
1749130436.5454605,1336.2693,1450.0,1429.8206,1450.0,
1749130436.5493515,1450.0,1420.6158,1450.0,1418.6687,
1749130436.5532427,729.6466,464.12744,531.92334,466.42862,
1749130436.5571337,0.0,0.0,0.0,0.0,
1749130436.5610249,233.65685,485.01495,360.13245,518.29333,
1749130436.5649159,1246.8778,1429.555,1352.2004,1447.3448,
1749130436.5688071,1450.0,1450.0,1450.0,1450.0,
1749130436.5726984,873.735,623.4389,686.9865,614.32275,
1749130436.5765893,0.0,0.0,0.0,0.0,
1749130436.5804806,89.65696,320.3046,217.19466,361.28305,
1749130436.5843716,1097.2136,1320.7806,1227.7605,1354.5016,
1749130436.5882628,1450.0,1450.0,1450.0,1450.0,
1749130436.5921540,993.57263,757.7916,816.3828,734.69147,
1749130436.5960450,17.435757,0.0,0.0,0.0,
1749130436.5999362,0.0,198.07727,101.78233,215.42453,
1749130436.6038272,945.6022,1216.2546,1095.0895,1233.0709,
1749130436.6077185,1450.0,1450.0,1450.0,1450.0,
1749130436.6116097,1115.3574,875.85913,975.95984,859.1314,
1749130436.6155007,114.173225,0.0,10.532259,0.0,
1749130436.6193919,0.0,81.8684,0.0,83.55002,
1749130436.6232829,788.85736,1085.9733,957.108,1090.3986,
1749130436.6271741,1450.0,1450.0,1450.0,1450.0,
1749130436.6310654,1226.9639,1002.5118,1090.3986,951.9746,
1749130436.6349564,216.22108,26.109383,91.86962,0.0,
1749130436.6388476,0.0,0.0,0.0,0.0,
1749130436.6427386,630.8735,935.95496,846.475,942.4159,
1749130436.6466298,1450.0,1450.0,1450.0,1450.0,
1749130436.6505208,1337.9509,1136.1564,1203.3328,1072.1663,
1749130436.6544120,330.30582,129.66185,201.70604,87.444305,
1749130436.6583033,0.0,0.0,0.0,0.0,
1749130436.6621943,474.4827,800.8057,675.7462,774.69635,
1749130436.6660855,1450.0,1450.0,1450.0,1450.0,
1749130436.6699765,1417.3412,1267.9424,1365.388,1221.9191,
1749130436.6738677,407.8374,260.56277,371.8153,208.25551,
1749130436.6777589,0.0,0.0,0.0,0.0,
1749130436.6816499,353.22894,670.70135,543.7832,632.8206,
1749130436.6855412,1357.6879,1450.0,1450.0,1450.0,
1749130436.6894321,1450.0,1361.1396,1432.2102,1318.922,
1749130436.6933234,588.2134,373.40842,471.47348,304.46194,
1749130436.6972146,0.0,0.0,0.0,0.0,
1749130436.7011056,236.31203,519.8865,397.65915,478.11145,
1749130436.7049968,1250.4181,1450.0,1385.3019,1450.0,
1749130436.7088878,1450.0,1450.0,1450.0,1424.1561,
1749130436.7127790,728.496,511.8324,606.3572,421.11334,
1749130436.7166700,0.0,0.0,0.0,0.0,
1749130436.7205613,140.1941,452.7101,431.02606,374.91302,
1749130436.7244525,1145.6266,1413.8009,1392.5593,1383.2662,
1749130436.7283435,1450.0,1450.0,1450.0,1450.0,
1749130436.7322347,853.90955,644.0609,740.17883,545.73035,
1749130436.7361257,0.0,0.0,0.0,0.0,
1749130436.7400169,9.735702,239.23274,144.53091,216.4866,
1749130436.7439082,943.30096,1253.6929,1144.5645,1234.9294,
1749130436.7477992,1450.0,1450.0,1450.0,1450.0,
1749130436.7516904,995.6968,766.0227,879.48785,683.6233,
1749130436.7555814,39.296833,0.0,0.0,0.0,
1749130436.7594726,0.0,134.97223,40.093388,111.96057,
1749130436.7633638,802.75287,1139.3427,1011.89343,1104.8251,
1749130436.7672548,1450.0,1450.0,1450.0,1450.0,
1749130436.7711461,1138.4575,919.9353,1000.4761,818.15295,
1749130436.7750371,137.18489,0.0,51.59922,0.0,
1749130436.7789283,0.0,11.24031,0.0,9.735702,
1749130436.7828193,664.41736,964.98505,804.523,937.017,
1749130436.7867105,1450.0,1450.0,1450.0,1450.0,
1749130436.7906017,1266.0837,1068.5375,1139.4312,965.5161,
1749130436.7944927,245.95923,69.389,132.49405,20.444973,
1749130436.7983840,0.0,0.0,0.0,0.0,
1749130436.8022749,533.1624,878.0718,747.5249,822.04724,
1749130436.8061662,1450.0,1450.0,1450.0,1450.0,
1749130436.8100574,1387.6915,1182.5337,1325.383,1120.7562,
1749130436.8139484,379.8694,171.52536,328.44717,124.174446,
1749130436.8178396,0.0,0.0,0.0,0.0,
1749130436.8217306,407.66037,748.2329,612.9067,681.58765,
1749130436.8256218,1406.4548,1450.0,1450.0,1450.0,
1749130436.8295131,1450.0,1306.9736,1385.8329,1246.9663,
1749130436.8334041,518.47034,303.13434,402.704,226.57632,
1749130436.8372953,0.0,0.0,0.0,0.0,
1749130436.8411863,303.31137,623.52747,493.60007,557.5017,
1749130436.8450775,1312.284,1450.0,1441.5034,1450.0,
1749130436.8489687,1450.0,1421.4125,1450.0,1372.9109,
1749130436.8528597,671.32086,470.14587,556.0856,362.1681,
1749130436.8567510,0.0,0.0,0.0,0.0,
1749130436.8606420,177.36678,472.27005,371.01874,427.13177,
1749130436.8645332,1186.1625,1426.3688,1356.3602,1424.7756,
1749130436.8684242,1450.0,1450.0,1450.0,1450.0,
1749130436.8723154,812.7541,609.2779,696.27966,489.7943,
1749130436.8762066,0.0,0.0,0.0,0.0,
1749130436.8800976,75.49594,337.56332,239.40976,299.6826,
1749130436.8839889,1059.9524,1334.3221,1242.9835,1314.4967,
1749130436.8878798,1450.0,1450.0,1450.0,1450.0,
1749130436.8917711,964.1885,744.6927,876.47864,643.8839,
1749130436.8956623,6.1069403,0.0,0.0,0.0,
1749130436.8995533,0.0,221.974,118.77556,189.04962,
1749130436.9034445,928.87445,1237.1422,1134.4747,1202.3591,
1749130436.9073355,1450.0,1450.0,1450.0,1450.0,
1749130436.9112267,1097.3906,893.02936,991.2714,784.1665,
1749130436.9151180,101.339806,0.0,5.664408,0.0,
1749130436.9190090,0.0,114.173225,34.340473,65.84875,
1749130436.9229002,786.9102,1130.4034,1009.6808,1038.7108,
1749130436.9267912,1450.0,1450.0,1450.0,1450.0,
1749130436.9306824,1230.2386,1045.7914,1133.5897,951.9746,
1749130436.9345734,216.3981,39.739365,114.35024,0.0,
1749130436.9384646,0.0,0.0,0.0,0.0,
1749130436.9423559,652.469,979.7656,886.7454,947.8148,
1749130436.9462469,1450.0,1450.0,1450.0,1450.0,
1749130436.9501381,1354.1476,1163.5049,1308.4783,1115.7999,
1749130436.9540291,354.0255,143.82286,305.96655,109.305374,
1749130436.9579203,0.0,0.0,0.0,0.0,
1749130436.9618115,514.5761,852.6705,740.9754,821.07367,
1749130436.9657025,1450.0,1450.0,1450.0,1450.0,
1749130436.9695938,1419.3768,1331.844,1360.0775,1261.3044,
1749130436.9734848,427.3088,336.14722,373.58542,247.72935,
1749130436.9773760,0.0,0.0,0.0,0.0,
1749130436.9812672,388.2775,708.228,589.09845,682.38416,
1749130436.9851582,1373.796,1450.0,1450.0,1450.0,
1749130436.9890494,1450.0,1390.1697,1448.6724,1356.7142,
1749130436.9929404,630.608,427.75134,520.0635,363.23016,
1749130436.9968317,0.0,0.0,0.0,0.0,
1749130437.0007226,256.75702,549.80164,451.64804,536.6142,
1749130437.0046139,1268.7389,1450.0,1409.4641,1450.0,
1749130437.0085051,1450.0,1450.0,1450.0,1444.4241,
1749130437.0123961,766.4652,561.48444,648.7518,484.30692,
1749130437.0162873,0.0,0.0,0.0,0.0,
1749130437.0201783,137.71593,413.14777,301.45273,400.9339,
1749130437.0240695,1143.8564,1396.0111,1317.152,1389.1077,
1749130437.0279608,1450.0,1450.0,1450.0,1450.0,
1749130437.0318518,913.0318,643.5299,711.41425,614.9423,
1749130437.0357430,0.0,0.0,0.0,0.0,
1749130437.0396340,36.19911,288.5308,187.89905,268.70535,
1749130437.0435252,1018.08887,1288.1218,1189.2603,1279.5367,
1749130437.0474164,1450.0,1450.0,1450.0,1450.0,
1749130437.0513074,1049.6857,836.5623,944.45154,761.7744,
1749130437.0551987,57.086613,0.0,0.0,0.0,
1749130437.0590897,0.0,132.67107,105.67661,156.39078,
1749130437.0629809,888.78107,1148.6357,1128.9873,1170.2313,
1749130437.0668719,1450.0,1450.0,1450.0,1450.0,
1749130437.0707631,1175.9843,970.2954,1063.7582,893.20636,
1749130437.0746543,162.3207,0.0,56.909603,0.0,
1749130437.0785453,0.0,45.93481,0.0,54.431423,
1749130437.0824366,758.5882,1054.3765,964.0115,1045.0834,
1749130437.0863276,1450.0,1450.0,1450.0,1450.0,
1749130437.0902188,1312.461,1108.6309,1238.2042,1058.1823,
1749130437.0941100,309.4183,89.12592,224.36366,58.768234,
1749130437.0980010,0.0,0.0,0.0,0.0,
1749130437.1018922,614.7653,926.13074,815.05524,908.42944,
1749130437.1057832,1450.0,1450.0,1450.0,1450.0,
1749130437.1096745,1404.5962,1226.3444,1314.3197,1193.42,
1749130437.1135657,430.67203,208.78654,317.82642,175.95068,
1749130437.1174567,0.0,0.0,0.0,0.0,
1749130437.1213479,473.95166,788.85736,667.0726,773.1032,
1749130437.1252389,1432.4757,1450.0,1450.0,1450.0,
1749130437.1291301,1450.0,1338.3049,1401.941,1309.0979,
1749130437.1330214,571.7512,350.9278,440.49625,302.07227,
1749130437.1369123,0.0,0.0,0.0,0.0,
1749130437.1408036,341.7231,634.2367,545.4648,644.946,
1749130437.1446946,1339.9866,1450.0,1450.0,1450.0,
1749130437.1485858,1450.0,1428.5814,1450.0,1402.649,
1749130437.1524768,704.6878,486.07703,577.3271,432.70767,
1749130437.1563680,0.0,0.0,0.0,0.0,
1749130437.1602592,208.07849,489.35178,377.83374,498.29092,
1749130437.1641502,1221.5651,1448.0529,1382.1156,1450.0,
1749130437.1680415,1450.0,1450.0,1450.0,1450.0,
1749130437.1719325,842.2267,546.7039,600.16174,526.1704,
1749130437.1758237,0.0,0.0,0.0,0.0,
1749130437.1797149,99.39266,371.19574,267.9088,376.59464,
1749130437.1836059,1103.055,1347.9521,1258.1182,1357.8649,
1749130437.1874971,1450.0,1450.0,1450.0,1450.0,
1749130437.1913881,986.8461,768.5009,873.0269,724.51324,
1749130437.1952794,9.470182,0.0,0.0,0.0,
1749130437.1991706,0.0,217.46017,189.22664,252.5087,
1749130437.2030616,968.25977,1235.0181,1216.3431,1266.1722,
1749130437.2069528,1450.0,1450.0,1450.0,1450.0,
1749130437.2108438,1120.9332,915.42145,1009.5923,867.80505,
1749130437.2147350,100.54324,0.0,0.0,0.0,
1749130437.2186260,0.0,152.40799,122.1388,136.56534,
1749130437.2225173,887.9845,1190.7648,1176.7808,1161.3807,
1749130437.2264085,1450.0,1450.0,1450.0,1450.0,
1749130437.2302995,1243.6031,1027.9131,1125.6241,995.8738,
1749130437.2341907,237.90515,27.171457,123.28938,4.867851,
1749130437.2380817,0.0,1.2390893,0.0,13.629982,
1749130437.2419729,683.4462,994.45764,878.1603,1008.26465,
1749130437.2458642,1450.0,1450.0,1450.0,1450.0,
1749130437.2497551,1343.6154,1152.4415,1245.1963,1135.0944,
1749130437.2536464,344.28983,134.6182,234.18788,116.12037,
1749130437.2575374,0.0,0.0,0.0,0.0,
1749130437.2614286,540.774,860.99005,734.69147,872.7614,
1749130437.2653198,1450.0,1450.0,1450.0,1450.0,
1749130437.2692108,1444.7781,1283.785,1356.0947,1263.4286,
1749130437.2731020,487.49313,280.65372,370.6647,247.90637,
1749130437.2769930,0.0,0.0,0.0,0.0,
1749130437.2808843,406.24426,696.19116,611.04803,733.2753,
1749130437.2847753,1388.134,1450.0,1450.0,1450.0,
1749130437.2886665,1450.0,1386.0099,1439.3793,1358.9269,
1749130437.2925577,630.4309,413.6788,506.345,371.19574,
1749130437.2964487,0.0,0.0,0.0,0.0,
1749130437.3003399,280.91925,573.78687,474.83673,593.8778,
1749130437.3042309,1288.2988,1450.0,1413.0929,1450.0,
1749130437.3081222,1450.0,1450.0,1450.0,1448.8494,
1749130437.3120134,775.31586,534.2245,685.3934,513.4255,
1749130437.3159044,0.0,0.0,0.0,0.0,
1749130437.3197956,155.32869,435.7169,327.03107,448.28482,
1749130437.3236866,1167.5762,1398.6663,1324.5864,1410.5261,
1749130437.3275778,1450.0,1450.0,1450.0,1450.0,
1749130437.3314691,915.33295,686.27844,799.65515,649.2828,
1749130437.3353601,0.0,0.0,0.0,0.0,
1749130437.3392513,52.218765,282.33536,243.30403,317.38388,
1749130437.3431423,1047.296,1288.7413,1261.924,1317.86,
1749130437.3470335,1450.0,1450.0,1450.0,1450.0,
1749130437.3509247,1047.7385,837.8014,938.1676,795.4953,
1749130437.3548157,55.847527,0.0,0.0,0.0,
1749130437.3587070,0.0,161.34712,82.664955,177.89783,
1749130437.3625979,896.4811,1183.4188,1096.6825,1198.1108,
1749130437.3664892,1450.0,1450.0,1450.0,1450.0,
1749130437.3703802,1188.1096,979.05756,1085.8848,938.2561,
1749130437.3742714,173.82652,0.0,73.19478,0.0,
1749130437.3781626,0.0,53.45785,0.0,67.88439,
1749130437.3820536,761.15485,1072.0778,967.3747,1083.7606,
1749130437.3859448,1450.0,1450.0,1450.0,1450.0,
1749130437.3898358,1289.007,1091.6377,1193.597,1068.449,
1749130437.3937271,279.94568,77.7086,175.77367,58.41421,
1749130437.3976183,0.0,0.0,0.0,0.0,
1749130437.4015093,618.30554,937.45953,823.1093,944.45154,
1749130437.4054005,1450.0,1450.0,1450.0,1450.0,
1749130437.4092915,1394.8605,1210.9442,1296.7069,1188.9946,
1749130437.4131827,413.23627,200.11292,294.46072,168.33913,
1749130437.4170740,0.0,0.0,0.0,0.0,
1749130437.4209650,484.92645,766.3767,686.01294,811.07245,
1749130437.4248562,1439.4678,1450.0,1450.0,1450.0,
1749130437.4287472,1450.0,1331.9325,1393.4445,1306.0886,
1749130437.4326384,558.5638,334.90814,429.964,301.0102,
1749130437.4365294,0.0,0.0,0.0,0.0,
1749130437.4404206,352.2554,648.8403,548.56256,671.32086,
1749130437.4443119,1345.2085,1450.0,1450.0,1450.0,
1749130437.4482028,1450.0,1409.3756,1450.0,1407.4285,
1749130437.4520941,708.7591,451.29404,610.42847,445.2756,
1749130437.4559851,0.0,0.0,0.0,0.0,
1749130437.4598763,226.93036,506.2565,386.8614,528.20605,
1749130437.4637675,1241.7445,1450.0,1396.2766,1450.0,
1749130437.4676585,1450.0,1450.0,1450.0,1450.0,
1749130437.4715497,841.1646,564.13965,565.9983,544.4027,
1749130437.4754407,0.0,0.0,0.0,0.0,
1749130437.4793320,122.935356,362.1681,307.20563,397.1281,
1749130437.4832232,1134.8287,1343.0844,1291.0426,1368.3086,
1749130437.4871142,1450.0,1450.0,1450.0,1450.0,
1749130437.4910054,987.8197,766.0227,858.24634,745.4007,
1749130437.4948964,4.6023316,0.0,0.0,0.0,
1749130437.4987876,9.735702,228.70049,143.73436,258.35013,
1749130437.5026786,994.9887,1245.9928,1161.4692,1272.5447,
1749130437.5065699,1450.0,1450.0,1450.0,1450.0,
1749130437.5104611,1119.3402,904.5352,986.40356,883.6477,
1749130437.5143521,107.97778,0.0,1.2390893,0.0,
1749130437.5182433,0.0,110.63297,28.764572,135.32625,
1749130437.5221343,857.80383,1135.5369,1024.9038,1161.6462,
1749130437.5260255,1450.0,1450.0,1450.0,1450.0,
1749130437.5299168,1238.8237,1012.513,1118.8976,1024.1958,
1749130437.5338078,223.74413,15.046084,105.67661,9.647195,
1749130437.5376990,0.0,14.072515,0.0,28.499054,
1749130437.5415900,717.52124,1014.63715,891.9673,1047.9155,
1749130437.5454812,1450.0,1450.0,1450.0,1450.0,
1749130437.5493724,1341.5797,1148.9012,1228.4685,1142.3518,
1749130437.5532634,346.945,134.5297,214.53946,116.82842,
1749130437.5571547,0.0,0.0,0.0,0.0,
1749130437.5610456,565.2902,853.0245,759.2962,903.82715,
1749130437.5649369,1450.0,1450.0,1450.0,1450.0,
1749130437.5688279,1438.8481,1270.2435,1331.2245,1257.4987,
1749130437.5727191,483.77588,260.56277,342.6082,241.88794,
1749130437.5766103,0.0,0.0,0.0,0.0,
1749130437.5805013,421.29037,711.06024,597.7721,754.7824,
1749130437.5843925,1398.4008,1450.0,1450.0,1450.0,
1749130437.5882835,1450.0,1351.8464,1439.0253,1347.6866,
1749130437.5921748,618.6596,362.96466,499.707,358.80487,
1749130437.5960660,0.0,0.0,0.0,0.0,
1749130437.5999570,285.16754,571.5742,453.06415,599.1882,
1749130437.6038482,1294.3173,1450.0,1416.81,1450.0,
1749130437.6077392,1450.0,1443.5391,1450.0,1433.0953,
1749130437.6116304,748.587,501.74265,604.32153,481.91724,
1749130437.6155217,0.0,0.0,0.0,0.0,
1749130437.6194127,182.23463,430.141,341.2806,453.15265,
1749130437.6233039,1195.4557,1398.6663,1336.9773,1416.102,
1749130437.6271949,1450.0,1450.0,1450.0,1450.0,
1749130437.6310861,885.2408,650.7874,742.0375,621.8458,
1749130437.6349773,0.0,0.0,0.0,0.0,
1749130437.6388683,47.793446,287.1147,197.36922,303.22284,
1749130437.6427596,1030.9222,1291.6621,1208.2006,1308.7438,
1749130437.6466506,1450.0,1450.0,1450.0,1450.0,
1749130437.6505418,1019.23944,805.1425,883.38214,764.5181,
1749130437.6544328,41.686504,0.0,0.0,0.0,
1749130437.6583240,0.0,158.95746,74.07984,169.93225,
1749130437.6622152,882.93964,1180.9406,1069.7766,1188.9946,
1749130437.6661062,1450.0,1450.0,1450.0,1450.0,
1749130437.6699975,1142.8828,896.3926,1015.8762,877.8948,
1749130437.6738884,137.89294,0.0,34.340473,0.0,
1749130437.6777797,0.0,60.803883,0.0,63.459072,
1749130437.6816709,738.76276,1055.7041,938.52167,1060.5719,
1749130437.6855619,1450.0,1450.0,1450.0,1450.0,
1749130437.6894531,1255.286,1042.5166,1132.4391,992.59906,
1749130437.6933441,242.59598,56.998108,128.33424,25.93237,
1749130437.6972353,0.0,0.0,0.0,0.0,
1749130437.7011266,583.6111,887.896,803.1069,895.9501,
1749130437.7050176,1450.0,1450.0,1450.0,1450.0,
1749130437.7089088,1364.1488,1168.2842,1248.3824,1098.4526,
1749130437.7127998,352.07837,140.01709,208.87506,98.33059,
1749130437.7166910,0.0,0.0,0.0,0.0,
1749130437.7205820,488.6437,850.10376,840.6336,783.36993,
1749130437.7244732,1450.0,1450.0,1450.0,1450.0,
1749130437.7283645,1448.9379,1243.2491,1367.7776,1234.1329,
1749130437.7322555,476.96088,248.08337,428.54788,227.37288,
1749130437.7361467,0.0,0.0,0.0,0.0,
1749130437.7400377,303.13434,613.70325,488.82074,592.10767,
1749130437.7439289,1320.5151,1450.0,1450.0,1450.0,
1749130437.7478201,1450.0,1377.7788,1443.6276,1335.0303,
1749130437.7517111,606.88824,387.1269,475.8988,317.11835,
1749130437.7556024,0.0,0.0,0.0,0.0,
1749130437.7594934,197.72325,477.4034,363.76123,441.46982,
1749130437.7633846,1209.3512,1439.2908,1364.5028,1442.8309,
1749130437.7672758,1450.0,1450.0,1450.0,1441.3264,
1749130437.7711668,746.55133,534.93256,610.69403,439.16864,
1749130437.7750580,0.0,0.0,0.0,0.0,
1749130437.7789490,80.62931,328.9782,235.69249,310.9229,
1749130437.7828403,1057.1202,1329.2773,1243.6917,1331.2245,
1749130437.7867312,1450.0,1450.0,1450.0,1450.0,
1749130437.7906225,899.2248,690.7923,765.31464,586.44324,
1749130437.7945137,0.0,0.0,0.0,0.0,
1749130437.7984047,0.0,231.88672,134.88373,213.21187,
1749130437.8022959,933.6538,1244.3112,1131.7311,1223.6007,
1749130437.8061869,1450.0,1450.0,1450.0,1450.0,
1749130437.8100781,1052.2523,840.6336,952.2401,759.7388,
1749130437.8139694,68.769455,0.0,0.0,0.0,
1749130437.8178604,0.0,127.09516,38.146248,119.218094,
1749130437.8217516,808.9483,1139.8737,1027.9131,1117.4816,
1749130437.8256426,1450.0,1450.0,1450.0,1450.0,
1749130437.8295338,1196.8717,1003.1313,1089.425,933.29974,
1749130437.8334250,182.41165,12.656412,77.00055,0.0,
1749130437.8373160,0.0,10.532259,0.0,22.569126,
1749130437.8412073,687.6061,1002.2462,933.03424,1000.83014,
1749130437.8450983,1450.0,1450.0,1450.0,1450.0,
1749130437.8489895,1320.4266,1146.2461,1214.75,1085.3538,
1749130437.8528807,313.4896,124.61698,203.12213,79.39022,
1749130437.8567717,0.0,0.0,0.0,0.0,
1749130437.8606629,546.7924,887.4534,778.0596,880.8155,
1749130437.8645539,1450.0,1450.0,1450.0,1450.0,
1749130437.8684452,1399.5514,1259.0033,1352.289,1229.6191,
1749130437.8723361,401.55344,252.33168,363.14166,214.36244,
1749130437.8762274,0.0,0.0,0.0,0.0,
1749130437.8801186,412.88226,743.36505,628.5723,731.77075,
1749130437.8840096,1397.8698,1450.0,1450.0,1450.0,
1749130437.8879008,1450.0,1348.3947,1420.0848,1313.1692,
1749130437.8917918,575.02594,362.43362,470.3229,308.0907,
1749130437.8956831,0.0,0.0,0.0,0.0,
1749130437.8995743,286.40665,597.6836,481.4747,579.1857,
1749130437.9034653,1298.9196,1450.0,1430.4401,1450.0,
1749130437.9073565,1450.0,1437.9631,1450.0,1409.8181,
1749130437.9112475,699.81995,500.06104,596.35596,430.49503,
1749130437.9151387,0.0,0.0,0.0,0.0,
1749130437.9190300,149.75279,425.62717,349.15765,426.77777,
1749130437.9229209,1154.1232,1397.6042,1338.1279,1412.1193,
1749130437.9268122,1450.0,1450.0,1450.0,1450.0,
1749130437.9307032,836.7393,643.9724,740.35583,560.42236,
1749130437.9345944,0.0,0.0,0.0,0.0,
1749130437.9384854,45.138252,300.47916,217.90271,292.69058,
1749130437.9423766,1013.398,1308.3013,1227.4065,1306.8851,
1749130437.9462678,1450.0,1450.0,1450.0,1450.0,
1749130437.9501588,969.9414,762.3054,894.09143,685.3049,
1749130437.9540501,20.53348,0.0,0.0,0.0,
1749130437.9579411,0.0,177.63231,86.382225,156.12526,
1749130437.9618323,860.72455,1196.1637,1100.0458,1169.2578,
1749130437.9657235,1450.0,1450.0,1450.0,1450.0,
1749130437.9696145,1090.8411,873.6465,950.29297,789.74243,
1749130437.9735057,102.31338,0.0,0.0,0.0,
1749130437.9773967,0.0,60.449856,25.93237,55.582005,
1749130437.9812880,717.87524,1046.0569,1003.3083,1024.2843,
1749130437.9851792,1450.0,1450.0,1450.0,1450.0,
1749130437.9890702,1229.1766,1043.6672,1116.8619,937.6366,
1749130437.9929614,212.94635,47.616432,117.80199,1.858634,
1749130437.9968524,0.0,0.0,0.0,0.0,
1749130438.0007436,589.27545,931.70667,826.6496,883.7362,
1749130438.0046346,1450.0,1450.0,1450.0,1450.0,
1749130438.0085258,1364.5028,1174.3026,1300.6897,1114.8263,
1749130438.0124171,357.21173,156.92181,300.74466,113.28816,
1749130438.0163081,0.0,0.0,0.0,0.0,
1749130438.0201993,468.64127,813.99316,681.1451,764.25256,
1749130438.0240903,1442.1229,1450.0,1450.0,1450.0,
1749130438.0279815,1450.0,1297.769,1352.9084,1244.0457,
1749130438.0318727,500.68057,293.8412,366.15088,228.25795,
1749130438.0357637,0.0,0.0,0.0,0.0,
1749130438.0396550,359.24738,684.95087,523.51526,638.485,
1749130438.0435460,1353.1741,1450.0,1450.0,1450.0,
1749130438.0474372,1450.0,1406.8973,1439.2908,1370.0787,
1749130438.0513284,666.54156,454.03772,479.43906,370.3107,
1749130438.0552194,0.0,0.0,0.0,0.0,
1749130438.0591106,267.73178,542.27856,391.3752,548.474,
1749130438.0630016,1270.863,1450.0,1379.372,1450.0,
1749130438.0668929,1450.0,1450.0,1450.0,1450.0,
1749130438.0707841,854.44055,634.4137,612.0216,565.2902,
1749130438.0746751,0.0,0.0,0.0,0.0,
1749130438.0785663,162.14369,422.35245,255.07538,438.19507,
1749130438.0824573,1183.4188,1381.7616,1257.3217,1389.3732,
1749130438.0863485,1450.0,1450.0,1450.0,1450.0,
1749130438.0902395,1048.2695,808.24023,793.01715,779.6527,
1749130438.0941308,1.7701275,0.0,0.0,0.0,
1749130438.0980220,83.37301,312.42752,154.53214,349.15765,
1749130438.1019130,1140.3162,1314.8507,1163.4164,1339.8096,
1749130438.1058042,1450.0,1450.0,1450.0,1450.0,
1749130438.1096952,1223.8662,1007.1141,953.56775,976.22534,
1749130438.1135864,155.59421,0.0,0.0,0.0,
1749130438.1174777,0.0,188.16457,82.84197,223.65562,
1749130438.1213686,1048.6235,1247.763,1079.6008,1273.2528,
1749130438.1252599,1450.0,1450.0,1450.0,1450.0,
1749130438.1291509,1339.1016,1130.2264,1063.0502,1118.7206,
1749130438.1330421,304.1079,58.67973,65.2292,32.127815,
1749130438.1369333,0.0,43.191113,0.0,85.49716,
1749130438.1408243,986.40356,1113.4103,907.2789,1170.0543,
1749130438.1447155,1450.0,1450.0,1450.0,1450.0,
1749130438.1486065,1426.7228,1225.9019,1212.7144,1241.302,
1749130438.1524978,494.0426,173.20699,210.73369,167.80809,
1749130438.1563888,0.0,0.0,0.0,0.0,
1749130438.1602800,864.61884,989.4128,734.77997,1056.8546,
1749130438.1641712,1450.0,1450.0,1450.0,1450.0,
1749130438.1680622,1450.0,1315.2933,1265.7297,1324.7634,
1749130438.1719534,661.23114,307.11713,263.749,302.24927,
1749130438.1758444,0.0,0.0,0.0,0.0,
1749130438.1797357,691.3233,833.9071,555.2005,915.687,
1749130438.1836269,1450.0,1450.0,1450.0,1450.0,
1749130438.1875179,1450.0,1395.7456,1375.1237,1399.9054,
1749130438.1914091,801.6023,453.15265,375.26706,452.00208,
1749130438.1953001,0.0,0.0,0.0,0.0,
1749130438.1991913,489.44028,644.5035,425.8042,750.9766,
1749130438.2030826,1421.7665,1450.0,1416.0135,1450.0,
1749130438.2069736,1450.0,1450.0,1450.0,1450.0,
1749130438.2108648,905.6858,563.0776,507.58408,590.1605,
1749130438.2147558,0.0,0.0,0.0,0.0,
1749130438.2186470,363.3187,562.6351,483.2448,608.3043,
1749130438.2225380,1363.1753,1450.0,1417.6952,1450.0,
1749130438.2264292,1450.0,1450.0,1450.0,1450.0,
1749130438.2303205,1002.4232,653.97363,698.4038,734.0719,
1749130438.2342114,0.0,0.0,0.0,0.0,
1749130438.2381027,137.53891,336.67825,201.08649,427.4858,
1749130438.2419937,1189.0833,1330.2509,1206.4304,1388.5765,
1749130438.2458849,1450.0,1450.0,1450.0,1450.0,
1749130438.2497761,1108.2769,795.1413,856.65326,875.32806,
1749130438.2536671,60.095833,0.0,0.0,0.0,
1749130438.2575583,13.18745,187.2795,167.54257,284.548,
1749130438.2614493,1053.757,1204.8373,1186.959,1306.2656,
1749130438.2653406,1450.0,1450.0,1450.0,1450.0,
1749130438.2692318,1212.5374,949.1424,1021.98315,1010.91986,
1749130438.2731228,176.03918,0.0,17.966795,0.0,
1749130438.2770140,0.0,78.50516,23.277178,147.36311,
1749130438.2809050,914.71344,1099.6033,1030.0372,1206.8729,
1749130438.2847962,1450.0,1450.0,1450.0,1450.0,
1749130438.2886872,1327.3302,1086.9468,1219.2639,1153.5922,
1749130438.2925785,325.61496,63.724594,188.16457,78.859184,
1749130438.2964697,0.0,0.0,0.0,24.604773,
1749130438.3003607,780.8033,982.86334,915.9525,1100.3113,
1749130438.3042519,1450.0,1450.0,1450.0,1450.0,
1749130438.3081429,1405.8353,1208.7316,1310.4254,1262.455,
1749130438.3120341,462.26883,183.2967,304.0194,212.06128,
1749130438.3159254,0.0,0.0,0.0,0.0,
1749130438.3198164,628.30676,856.74176,783.8125,974.4552,
1749130438.3237076,1450.0,1450.0,1450.0,1450.0,
1749130438.3275986,1450.0,1311.6646,1390.9662,1347.1556,
1749130438.3314898,602.55145,315.79077,433.1502,352.3439,
1749130438.3353810,0.0,0.0,0.0,0.0,
1749130438.3392720,475.63327,696.10266,644.0609,819.1265,
1749130438.3431633,1415.1285,1450.0,1450.0,1450.0,
1749130438.3470542,1450.0,1407.163,1450.0,1423.1826,
1749130438.3509455,742.83405,454.39175,570.51215,500.7691,
1749130438.3548367,0.0,0.0,0.0,0.0,
1749130438.3587277,326.41153,553.16486,469.96887,659.81506,
1749130438.3626189,1325.383,1450.0,1436.901,1450.0,
1749130438.3665099,1450.0,1447.9644,1450.0,1450.0,
1749130438.3704011,873.0269,505.45993,575.911,640.6092,
1749130438.3742921,0.0,0.0,0.0,0.0,
1749130438.3781834,187.01398,422.35245,339.51047,507.23004,
1749130438.3820746,1216.5201,1384.8593,1317.7715,1428.3159,
1749130438.3859656,1450.0,1450.0,1450.0,1450.0,
1749130438.3898568,1002.3347,711.06024,833.9956,786.11365,
1749130438.3937478,0.0,0.0,0.0,0.0,
1749130438.3976390,63.54758,250.56155,225.77977,349.15765,
1749130438.4015303,1092.4342,1263.5171,1252.2767,1346.2705,
1749130438.4054213,1450.0,1450.0,1450.0,1450.0,
1749130438.4093125,1113.4988,842.3152,936.22046,906.65936,
1749130438.4132035,87.88683,0.0,0.0,0.0,
1749130438.4170947,0.0,138.51248,72.1327,207.19344,
1749130438.4209859,950.20447,1156.1588,1081.4595,1244.1342,
1749130438.4248769,1450.0,1450.0,1450.0,1450.0,
1749130438.4287682,1244.3997,984.0139,1069.1571,1042.0741,
1749130438.4326591,223.83263,0.0,69.65452,0.0,
1749130438.4365504,0.0,35.13703,0.0,74.16834,
1749130438.4404414,805.4965,1041.5431,934.8929,1125.8896,
1749130438.4443326,1450.0,1450.0,1450.0,1450.0,
1749130438.4482238,1328.7462,1095.355,1169.8773,1149.0784,
1749130438.4521148,334.5541,85.9397,166.392,104.79155,
1749130438.4560061,0.0,0.0,0.0,0.0,
1749130438.4598970,652.73456,904.8007,756.90656,986.40356,
1749130438.4637883,1450.0,1450.0,1450.0,1450.0,
1749130438.4676795,1419.0228,1212.5374,1258.5607,1253.1619,
1749130438.4715705,467.84473,201.352,252.68571,226.04529,
1749130438.4754617,0.0,0.0,0.0,0.0,
1749130438.4793527,504.13232,747.8789,606.79974,848.3336,
1749130438.4832439,1443.362,1450.0,1450.0,1450.0,
1749130438.4871352,1450.0,1323.7014,1353.3511,1340.0751,
1749130438.4910262,596.35596,328.62418,356.5922,352.3439,
1749130438.4949174,0.0,0.0,0.0,0.0,
1749130438.4988084,337.47482,588.3904,440.1422,682.7382,
1749130438.5026996,1338.4819,1450.0,1423.2711,1450.0,
1749130438.5065906,1450.0,1397.3387,1450.0,1416.3676,
1749130438.5104818,708.228,414.65237,507.23004,468.19873,
1749130438.5143731,0.0,0.0,0.0,0.0,
1749130438.5182641,190.28871,447.13422,324.6414,527.2325,
1749130438.5221553,1204.5718,1419.7308,1327.8612,1450.0,
1749130438.5260463,1450.0,1450.0,1450.0,1450.0,
1749130438.5299375,830.0128,560.33386,655.4782,605.0296,
1749130438.5338287,0.0,0.0,0.0,0.0,
1749130438.5377197,75.58445,288.97333,256.93402,362.87616,
1749130438.5416110,1066.5018,1299.0082,1267.4999,1358.3959,
1749130438.5455019,1450.0,1450.0,1450.0,1450.0,
1749130438.5493932,946.1332,693.35895,802.57587,709.3786,
1749130438.5532844,2.3896723,0.0,0.0,0.0,
1749130438.5571754,0.0,175.33113,119.306595,222.15102,
1749130438.5610666,907.19037,1184.4808,1118.8976,1239.2664,
1749130438.5649576,1450.0,1450.0,1450.0,1450.0,
1749130438.5688488,1071.2812,837.0048,954.5413,829.8358,
1749130438.5727401,89.74547,0.0,0.0,0.0,
1749130438.5766311,0.0,69.389,17.878288,90.45352,
1749130438.5805223,742.74554,1056.3236,990.38635,1092.0802,
1749130438.5844133,1450.0,1450.0,1450.0,1450.0,
1749130438.5883045,1197.7568,965.9586,1111.1976,950.3815,
1749130438.5921955,185.68639,8.231093,106.650185,0.0,
1749130438.5960867,0.0,0.0,0.0,0.0,
1749130438.5999780,599.54224,929.49396,854.6176,947.6378,
1749130438.6038690,1450.0,1450.0,1450.0,1450.0,
1749130438.6077602,1323.6129,1118.3666,1224.0432,1076.857,
1749130438.6116512,304.1964,122.935356,215.0705,85.76268,
1749130438.6155424,0.0,0.0,0.0,0.0,
1749130438.6194336,468.55276,762.1284,717.96375,802.2218,
1749130438.6233246,1450.0,1450.0,1450.0,1450.0,
1749130438.6272159,1429.201,1251.7457,1331.7555,1200.766,
1749130438.6311069,429.787,236.93158,338.6254,190.37723,
1749130438.6349981,0.0,0.0,0.0,0.0,
1749130438.6388893,337.2093,649.90234,584.0536,648.57477,
1749130438.6427803,1354.7671,1450.0,1450.0,1450.0,
1749130438.6466715,1450.0,1342.3762,1444.3356,1313.3462,
1749130438.6505625,554.8465,340.57254,507.9381,300.21362,
1749130438.6544538,0.0,0.0,0.0,0.0,
1749130438.6583447,202.85661,507.9381,427.5743,493.06903,
1749130438.6622360,1222.5386,1450.0,1406.3663,1450.0,
1749130438.6661272,1450.0,1434.1573,1450.0,1405.3043,
1749130438.6700182,667.69214,458.28604,585.02716,395.80054,
1749130438.6739094,0.0,0.0,0.0,0.0,
1749130438.6778004,96.02942,339.33347,302.5148,336.23572,
1749130438.6816916,1078.6272,1348.2177,1311.8416,1366.45,
1749130438.6855829,1450.0,1450.0,1450.0,1450.0,
1749130438.6894739,787.2642,593.7893,710.3522,500.23804,
1749130438.6933651,0.0,0.0,0.0,0.0,
1749130438.6972561,0.0,211.61874,156.92181,191.88184,
1749130438.7011473,898.4282,1226.4329,1164.0359,1219.7949,
1749130438.7050385,1450.0,1450.0,1450.0,1450.0,
1749130438.7089295,911.35016,723.0086,827.0036,611.5791,
1749130438.7128208,8.408106,0.0,0.0,0.0,
1749130438.7167118,0.0,110.89849,58.41421,96.11793,
1749130438.7206030,741.6835,1102.3469,1027.0281,1077.1227,
1749130438.7244940,1450.0,1450.0,1450.0,1450.0,
1749130438.7283852,1066.7673,866.2119,1003.92786,762.748,
1749130438.7322764,90.36501,0.0,35.579563,0.0,
1749130438.7361674,0.0,26.994446,0.0,13.45297,
1749130438.7400587,594.4973,981.8898,892.58685,930.8216,
1749130438.7439497,1450.0,1450.0,1450.0,1450.0,
1749130438.7478409,1216.7856,1024.2843,1134.8287,917.2801,
1749130438.7517321,188.51859,58.502716,137.3619,3.8057742,
1749130438.7556231,0.0,0.0,0.0,0.0,
1749130438.7595143,482.8023,805.7621,746.72833,798.1505,
1749130438.7634053,1450.0,1450.0,1450.0,1450.0,
1749130438.7672966,1353.6166,1186.8705,1272.2792,1074.6444,
1749130438.7711878,316.4103,168.95868,259.5007,93.0202,
1749130438.7750788,0.0,0.0,0.0,0.0,
1749130438.7789700,358.1853,730.7087,660.70013,662.1162,
1749130438.7828610,1389.9042,1450.0,1450.0,1450.0,
1749130438.7867522,1450.0,1292.5471,1409.4641,1229.2651,
1749130438.7906432,448.0193,284.01697,452.4446,208.60953,
1749130438.7945344,0.0,0.0,0.0,0.0,
1749130438.7984257,244.98566,602.4629,511.30136,526.967,
1749130438.8023167,1273.6953,1450.0,1450.0,1450.0,
1749130438.8062079,1450.0,1400.8789,1450.0,1339.5441,
1749130438.8100989,583.5226,423.59152,538.2958,307.11713,
1749130438.8139901,0.0,0.0,0.0,0.0,
1749130438.8178813,164.88739,475.8988,392.6143,398.27872,
1749130438.8217723,1168.8152,1430.6171,1371.8489,1420.3503,
1749130438.8256636,1450.0,1450.0,1450.0,1449.115,
1749130438.8295546,735.134,581.0444,685.03937,434.3008,
1749130438.8334458,0.0,0.0,0.0,0.0,
1749130438.8373370,54.96246,332.8725,260.8283,271.62607,
1749130438.8412280,1010.0348,1329.4543,1266.2607,1301.9288,
1749130438.8451192,1450.0,1450.0,1450.0,1450.0,
1749130438.8490102,884.7098,730.0891,829.6588,570.3351,
1749130438.8529015,0.0,0.0,0.0,0.0,
1749130438.8567927,0.0,223.21309,152.49649,177.98633,
1749130438.8606837,884.1787,1237.7617,1164.1244,1187.7556,
1749130438.8645749,1450.0,1450.0,1450.0,1450.0,
1749130438.8684659,1040.304,872.31885,1003.66235,732.9213,
1749130438.8723571,67.441864,0.0,3.274736,0.0,
1749130438.8762481,0.0,113.11115,39.11982,83.196,
1749130438.8801394,755.1364,1127.2173,1048.181,1060.0409,
1749130438.8840306,1450.0,1450.0,1450.0,1450.0,
1749130438.8879216,1185.4545,1031.4534,1132.3506,904.35815,
1749130438.8918128,172.85295,34.78301,121.34225,0.0,
1749130438.8957038,0.0,0.0,0.0,0.0,
1749130438.8995950,631.67004,968.34827,866.1234,915.864,
1749130438.9034863,1450.0,1450.0,1450.0,1450.0,
1749130438.9073772,1314.5852,1167.5762,1253.5159,1055.9696,
1749130438.9112685,296.7619,139.84007,226.39932,67.17634,
1749130438.9151595,0.0,0.0,0.0,0.0,
1749130438.9190507,509.53122,877.6293,810.89545,821.95874,
1749130438.9229419,1450.0,1450.0,1450.0,1450.0,
1749130438.9268329,1424.7756,1254.7549,1384.5052,1206.2534,
1749130438.9307241,436.42496,244.80864,425.18463,192.58987,
1749130438.9346151,0.0,0.0,0.0,0.0,
1749130438.9385064,380.40042,736.19604,649.4598,686.898,
1749130438.9423974,1380.434,1450.0,1450.0,1450.0,
1749130438.9462886,1450.0,1364.8568,1438.4056,1311.3105,
1749130438.9501798,573.0788,386.68436,515.3726,300.8332,
1749130438.9540708,0.0,0.0,0.0,0.0,
1749130438.9579620,270.4755,592.4617,499.17596,549.80164,
1749130438.9618530,1283.6965,1450.0,1432.2102,1450.0,
1749130438.9657443,1450.0,1450.0,1450.0,1419.6423,
1749130438.9696355,714.24646,545.99585,647.1586,439.16864,
1749130438.9735265,0.0,0.0,0.0,0.0,
1749130438.9774177,146.03552,435.7169,368.9831,421.9984,
1749130438.9813087,1150.0519,1398.0468,1350.7843,1403.6227,
1749130438.9851999,1450.0,1450.0,1450.0,1450.0,
1749130438.9890912,857.36127,693.18195,785.0516,592.72723,
1749130438.9929821,0.0,0.0,0.0,0.0,
1749130438.9968734,39.650856,293.04462,214.80498,279.59164,
1749130439.0007644,1008.08765,1302.7253,1228.2915,1291.3081,
1749130439.0046556,1450.0,1450.0,1450.0,1450.0,
1749130439.0085466,992.1565,803.4609,929.22845,730.3546,
1749130439.0124378,27.525484,0.0,0.0,0.0,
1749130439.0163291,0.0,175.50815,92.13514,164.62186,
1749130439.0202200,876.7442,1193.597,1110.1355,1176.3383,
1749130439.0241113,1450.0,1450.0,1450.0,1450.0,
1749130439.0280023,1132.1736,957.285,1038.4453,871.96484,
1749130439.0318935,129.48483,0.0,41.50949,0.0,
1749130439.0357847,0.0,71.070625,0.0,42.04053,
1749130439.0396757,735.84204,1082.433,959.0551,1018.17737,
1749130439.0435669,1450.0,1450.0,1450.0,1450.0,
1749130439.0474579,1255.9055,1100.4883,1168.8152,1026.851,
1749130439.0513492,235.51547,78.94769,142.22975,29.915155,
1749130439.0552404,0.0,0.0,0.0,0.0,
1749130439.0591314,632.20105,954.01025,873.912,954.36426,
1749130439.0630226,1450.0,1450.0,1450.0,1450.0,
1749130439.0669136,1389.2847,1225.9904,1357.1569,1214.3075,
1749130439.0708048,403.9431,200.11292,368.45206,183.2082,
1749130439.0746961,0.0,0.0,0.0,0.0,
1749130439.0785871,524.57733,842.66925,753.10077,853.90955,
1749130439.0824783,1450.0,1450.0,1450.0,1450.0,
1749130439.0863693,1450.0,1344.0579,1389.5502,1337.0659,
1749130439.0902605,576.442,355.44162,440.76178,333.58054,
1749130439.0941515,0.0,0.0,0.0,0.0,
1749130439.0980427,419.25473,725.04425,640.4321,761.15485,
1749130439.1019340,1382.2041,1450.0,1450.0,1450.0,
1749130439.1058249,1450.0,1447.8759,1450.0,1434.1573,
1749130439.1097162,751.3306,548.2085,660.25757,511.47836,
1749130439.1136072,0.0,0.0,0.0,0.0,
1749130439.1174984,316.6758,587.5939,538.4728,648.66327,
1749130439.1213896,1312.9921,1450.0,1432.3872,1450.0,
1749130439.1252806,1450.0,1450.0,1450.0,1450.0,
1749130439.1291718,940.46875,735.0455,851.16583,706.81195,
1749130439.1330628,0.0,0.0,0.0,0.0,
1749130439.1369541,196.21864,437.57553,379.51535,502.3622,
1749130439.1408453,1238.0272,1397.0732,1363.6178,1423.6251,
1749130439.1447363,1450.0,1450.0,1450.0,1450.0,
1749130439.1486275,1081.194,841.6072,994.9887,861.9636,
1749130439.1525185,18.940365,0.0,0.0,0.0,
1749130439.1564097,76.82354,296.7619,227.5499,353.31747,
1749130439.1603007,1141.1128,1309.6289,1275.8195,1353.3511,
1749130439.1641920,1450.0,1450.0,1450.0,1450.0,
1749130439.1680832,1193.066,983.7484,1104.5596,993.04156,
1749130439.1719742,137.89294,0.0,14.869072,0.0,
1749130439.1758654,0.0,140.99066,135.23775,208.167,
1749130439.1797564,1005.43243,1190.2338,1215.9891,1263.0746,
1749130439.1836476,1450.0,1450.0,1450.0,1450.0,
1749130439.1875389,1284.493,1093.4963,1198.8188,1109.4275,
1749130439.1914299,265.1651,51.245193,143.0263,35.13703,
1749130439.1953211,0.0,15.754135,0.0,64.07862,
1749130439.1992121,846.74054,1052.6948,1017.4693,1137.5725,
1749130439.2031033,1450.0,1450.0,1450.0,1450.0,
1749130439.2069945,1378.3098,1187.1361,1337.3314,1221.7421,
1749130439.2108855,410.31558,149.57578,331.4564,161.61264,
1749130439.2147768,0.0,0.0,0.0,0.0,
1749130439.2186677,708.4935,933.8308,863.99927,1010.56586,
1749130439.2225590,1450.0,1450.0,1450.0,1450.0,
1749130439.2264500,1450.0,1319.1876,1380.3455,1320.9576,
1749130439.2303412,576.088,311.80798,418.9007,302.24927,
1749130439.2342324,0.0,0.0,0.0,0.0,
1749130439.2381234,587.1513,811.24945,705.8384,882.67413,
1749130439.2420146,1450.0,1450.0,1450.0,1450.0,
1749130439.2459056,1450.0,1408.1365,1448.5839,1403.2687,
1749130439.2497969,747.5249,469.96887,549.3591,454.12622,
1749130439.2536881,0.0,0.0,0.0,0.0,
1749130439.2575791,453.32968,656.62885,560.6879,746.55133,
1749130439.2614703,1398.4008,1450.0,1450.0,1450.0,
1749130439.2653613,1450.0,1450.0,1450.0,1450.0,
1749130439.2692525,910.81915,629.9884,680.437,632.37805,
1749130439.2731438,0.0,0.0,0.0,0.0,
1749130439.2770348,319.59653,513.86804,393.41086,601.8434,
1749130439.2809260,1333.1716,1435.2195,1377.9558,1450.0,
1749130439.2848170,1450.0,1450.0,1450.0,1450.0,
1749130439.2887082,1070.2191,744.5157,746.19727,801.5138,
1749130439.2925992,0.0,0.0,0.0,0.0,
1749130439.2964904,186.39444,378.18774,264.28006,464.30447,
1749130439.3003817,1259.8883,1355.7407,1267.4999,1409.1986,
1749130439.3042727,1450.0,1450.0,1450.0,1450.0,
1749130439.3081639,1191.3844,922.5905,965.07355,951.00104,
1749130439.3120549,88.50638,0.0,0.0,0.0,
1749130439.3159461,72.75224,208.96356,174.18056,309.5068,
1749130439.3198373,1177.4004,1247.4089,1219.1754,1335.9153,
1749130439.3237283,1450.0,1450.0,1450.0,1450.0,
1749130439.3276196,1296.5299,1054.111,1083.4951,1085.9733,
1749130439.3315105,222.15102,0.0,17.878288,0.0,
1749130439.3354018,0.0,129.30782,95.7639,172.0564,
1749130439.3392930,1088.0089,1199.0845,1167.3992,1253.3389,
1749130439.3431840,1450.0,1450.0,1450.0,1450.0,
1749130439.3470752,1359.9005,1125.9781,1167.1337,1191.8269,
1749130439.3509662,377.3912,90.01099,167.27705,103.10993,
1749130439.3548574,0.0,0.0,0.0,23.98523,
1749130439.3587487,846.91754,980.9162,822.04724,1115.1804,
1749130439.3626397,1450.0,1450.0,1450.0,1450.0,
1749130439.3665309,1416.5446,1206.8729,1239.2664,1275.731,
1749130439.3704219,496.34378,188.6956,235.42697,228.25795,
1749130439.3743131,0.0,0.0,0.0,0.0,
1749130439.3782041,651.1414,817.88745,645.91956,969.6759,
1749130439.3820953,1450.0,1450.0,1450.0,1450.0,
1749130439.3859866,1450.0,1285.5552,1323.6129,1347.2441,
1749130439.3898776,603.43646,290.0354,321.72067,358.0968,
1749130439.3937688,0.0,0.0,0.0,0.0,
1749130439.3976598,462.1803,611.6676,489.9713,790.716,
1749130439.4015510,1413.2699,1450.0,1450.0,1450.0,
1749130439.4054422,1450.0,1386.8064,1419.4653,1409.6411,
1749130439.4093332,710.79474,401.81897,430.40652,473.77466,
1749130439.4132245,0.0,0.0,0.0,0.0,
1749130439.4171154,283.39743,469.1723,335.70468,608.9239,
1749130439.4210067,1293.6093,1443.8931,1344.5889,1450.0,
1749130439.4248979,1450.0,1450.0,1450.0,1450.0,
1749130439.4287889,823.1093,497.22882,584.2306,594.0548,
1749130439.4326801,0.0,0.0,0.0,0.0,
1749130439.4365711,150.54935,341.2806,209.84862,440.2307,
1749130439.4404624,1168.8152,1339.9866,1226.3444,1399.6399,
1749130439.4443533,1450.0,1450.0,1450.0,1450.0,
1749130439.4482446,948.6114,661.8507,705.6614,727.1684,
1749130439.4521358,0.0,0.0,0.0,0.0,
1749130439.4560268,45.580784,207.98999,172.32191,299.85962,
1749130439.4599180,1045.7029,1216.0776,1177.7544,1306.7081,
1749130439.4638090,1450.0,1450.0,1450.0,1450.0,
1749130439.4677002,1078.6272,828.3312,843.11176,861.16705,
1749130439.4715915,73.19478,0.0,0.0,0.0,
1749130439.4754825,0.0,110.63297,22.303608,155.94824,
1749130439.4793737,902.1455,1114.9148,964.0115,1181.5602,
1749130439.4832647,1450.0,1450.0,1450.0,1450.0,
1749130439.4871559,1218.9983,980.47363,983.12885,994.9002,
1749130439.4910471,202.5026,1.5931149,36.818653,0.0,
1749130439.4949381,0.0,13.010438,0.0,41.50949,
1749130439.4988294,763.0135,997.7324,817.62195,1058.0938,
1749130439.5027204,1450.0,1450.0,1450.0,1450.0,
1749130439.5066116,1309.8059,1094.6469,1129.6069,1115.0919,
1749130439.5105026,306.14355,90.01099,133.91016,91.07307,
1749130439.5143938,0.0,0.0,0.0,0.0,
1749130439.5182850,618.04004,870.2832,688.75665,928.0779,
1749130439.5221760,1450.0,1450.0,1450.0,1450.0,
1749130439.5260673,1406.5433,1220.1489,1256.7905,1232.1858,
1749130439.5299582,436.24792,215.15901,245.25117,215.77855,
1749130439.5338495,0.0,0.0,0.0,0.0,
1749130439.5377407,466.69412,684.1543,558.3867,764.34106,
1749130439.5416317,1431.8562,1450.0,1450.0,1450.0,
1749130439.5455229,1450.0,1329.8083,1365.6534,1321.0463,
1749130439.5494139,558.2097,326.2345,361.9911,323.22528,
1749130439.5533051,0.0,0.0,0.0,0.0,
1749130439.5571964,311.80798,557.41315,419.52023,592.01917,
1749130439.5610874,1317.9485,1450.0,1406.8088,1450.0,
1749130439.5649786,1450.0,1415.6595,1450.0,1415.925,
1749130439.5688696,694.244,438.2836,532.7199,444.65604,
1749130439.5727608,0.0,0.0,0.0,0.0,
1749130439.5766521,186.0404,427.3973,284.4595,437.39853,
1749130439.5805430,1198.0223,1405.5698,1309.0094,1414.3319,
1749130439.5844343,1450.0,1450.0,1450.0,1450.0,
1749130439.5883253,829.21625,583.3455,607.5963,578.47766,
1749130439.5922165,0.0,0.0,0.0,0.0,
1749130439.5961075,88.15235,286.0526,221.00043,306.6746,
1749130439.5999987,1083.3181,1287.7678,1230.1501,1313.3462,
1749130439.6038899,1450.0,1450.0,1450.0,1450.0,
1749130439.6077809,968.08276,759.4732,780.7148,723.3626,
1749130439.6116722,5.13337,0.0,0.0,0.0,
1749130439.6155632,0.0,178.42886,80.80632,186.92548,
1749130439.6194544,944.8941,1192.4464,1061.0145,1202.3591,
1749130439.6233456,1450.0,1450.0,1450.0,1450.0,
1749130439.6272366,1107.7458,908.16394,911.7042,862.5832,
1749130439.6311278,106.473175,0.0,0.0,0.0,
1749130439.6350188,0.0,70.09705,0.0,77.620094,
1749130439.6389101,805.7621,1077.1227,906.0398,1078.1847,
1749130439.6428013,1450.0,1450.0,1450.0,1450.0,
1749130439.6466923,1235.4606,1017.4693,1054.819,1006.3175,
1749130439.6505835,220.29237,30.977232,80.36379,21.241531,
1749130439.6544745,0.0,0.0,0.0,0.0,
1749130439.6583657,675.8347,950.20447,768.5009,954.7183,
1749130439.6622567,1450.0,1450.0,1450.0,1450.0,
1749130439.6661479,1339.8981,1160.0531,1177.5774,1136.6874,
1749130439.6700392,339.953,152.85051,174.88861,129.0423,
1749130439.6739302,0.0,0.0,0.0,0.0,
1749130439.6778214,519.8865,777.61707,623.2619,794.8758,
1749130439.6817124,1450.0,1450.0,1450.0,1450.0,
1749130439.6856036,1436.547,1271.7482,1288.4758,1242.2755,
1749130439.6894948,463.6849,262.59842,275.60886,231.62119,
1749130439.6933858,0.0,0.0,0.0,0.0,
1749130439.6972771,371.8153,634.3252,459.2596,631.316,
1749130439.7011681,1372.7339,1450.0,1445.7517,1450.0,
1749130439.7050593,1450.0,1364.2373,1438.2286,1344.1464,
1749130439.7089505,591.0456,367.567,448.63882,336.8553,
1749130439.7128415,0.0,0.0,0.0,0.0,
1749130439.7167327,245.16267,513.77954,333.40353,490.9449,
1749130439.7206237,1258.3837,1450.0,1354.5901,1450.0,
1749130439.7245150,1450.0,1450.0,1450.0,1446.8137,
1749130439.7284060,732.21326,521.12555,538.4728,472.18152,
1749130439.7322972,0.0,0.0,0.0,0.0,
1749130439.7361884,149.22176,373.49692,261.62485,360.92902,
1749130439.7400794,1152.6185,1359.458,1280.0677,1363.7063,
1749130439.7439706,1450.0,1450.0,1450.0,1450.0,
1749130439.7478616,876.6557,679.8175,680.3485,615.5619,
1749130439.7517529,0.0,0.0,0.0,0.0,
1749130439.7556441,33.54392,252.24318,127.980225,244.63164,
1749130439.7595351,1001.09564,1260.3308,1119.8712,1257.4987,
1749130439.7634263,1450.0,1450.0,1450.0,1450.0,
1749130439.7673173,1014.90265,834.5267,827.8887,767.70435,
1749130439.7712085,41.155464,0.0,0.0,0.0,
1749130439.7750998,0.0,132.14003,32.03931,130.36989,
1749130439.7789907,865.32684,1148.6357,979.8541,1136.8644,
1749130439.7828820,1450.0,1450.0,1450.0,1450.0,
1749130439.7867730,1147.7507,945.8677,983.9254,916.3065,
1749130439.7906642,143.73436,0.0,34.871513,0.0,
1749130439.7945554,0.0,32.127815,0.0,25.13581,
1749130439.7984464,716.7247,1019.5935,833.5531,1001.8037,
1749130439.8023376,1450.0,1450.0,1450.0,1450.0,
1749130439.8062286,1263.0746,1088.4514,1116.1539,1034.905,
1749130439.8101199,247.99487,88.68339,120.89971,53.54636,
1749130439.8140109,0.0,0.0,0.0,0.0,
1749130439.8179021,575.734,861.6096,720.0879,853.0245,
1749130439.8217933,1450.0,1450.0,1450.0,1450.0,
1749130439.8256843,1377.5133,1221.211,1248.7365,1163.1509,
1749130439.8295755,371.63828,186.83696,208.60953,148.5137,
1749130439.8334665,0.0,0.0,0.0,0.0,
1749130439.8373578,479.17352,831.87146,774.96185,744.7812,
1749130439.8412490,1447.2563,1450.0,1450.0,1450.0,
1749130439.8451400,1450.0,1284.4045,1375.0352,1281.1299,
1749130439.8490312,500.9461,295.4343,431.99963,273.75024,
1749130439.8529222,0.0,0.0,0.0,0.0,
1749130439.8568134,301.36423,596.71,416.51102,568.12244,
1749130439.8607047,1315.3818,1450.0,1421.2355,1450.0,
1749130439.8645957,1450.0,1411.8538,1450.0,1384.5052,
1749130439.8684869,636.8919,442.7089,466.1631,383.49814,
1749130439.8723779,0.0,0.0,0.0,0.0,
1749130439.8762691,204.53824,458.72855,304.81598,420.6708,
1749130439.8801601,1217.4938,1422.563,1326.7106,1420.2618,
1749130439.8840513,1450.0,1450.0,1450.0,1450.0,
1749130439.8879426,773.7228,581.0444,588.2134,498.2024,
1749130439.8918335,0.0,0.0,0.0,0.0,
1749130439.8957248,82.31093,307.38266,179.49094,296.40787,
1749130439.8996158,1066.6788,1312.3726,1190.3223,1317.683,
1749130439.9035070,1450.0,1450.0,1450.0,1450.0,
1749130439.9073982,902.057,716.1936,713.80396,616.3584,
1749130439.9112892,0.0,0.0,0.0,0.0,
1749130439.9151804,0.0,189.66917,75.40743,166.30348,
1749130439.9190714,918.07666,1205.1029,1041.4546,1178.6394,
1749130439.9229627,1450.0,1450.0,1450.0,1450.0,
1749130439.9268539,1033.2235,830.4553,872.9384,737.9662,
1749130439.9307449,66.55679,0.0,0.0,0.0,
1749130439.9346361,0.0,80.80632,0.0,55.4935,
1749130439.9385271,752.2157,1070.7501,885.50635,1016.8498,
1749130439.9424183,1450.0,1450.0,1450.0,1450.0,
1749130439.9463093,1168.8152,985.3415,1018.17737,880.4614,
1749130439.9502006,161.0816,19.471403,54.69694,0.0,
1749130439.9540918,0.0,0.0,0.0,0.0,
1749130439.9579828,615.2963,924.0066,789.47687,882.32007,
1749130439.9618740,1450.0,1450.0,1450.0,1450.0,
1749130439.9657650,1291.9276,1124.4735,1142.6173,1012.867,
1749130439.9696562,268.70535,118.77556,149.39877,54.69694,
1749130439.9735475,0.0,0.0,0.0,0.0,
1749130439.9774384,479.26205,804.7885,640.4321,735.93054,
1749130439.9813297,1450.0,1450.0,1450.0,1450.0,
1749130439.9852207,1389.9927,1247.8514,1336.2693,1149.2554,
1749130439.9891119,365.26584,239.9408,331.98743,145.41599,
1749130439.9930031,0.0,0.0,0.0,0.0,
1749130439.9968941,357.9198,673.0025,515.2841,595.64795,
1749130440.0007854,1371.7604,1450.0,1450.0,1450.0,
1749130440.0046763,1450.0,1351.5809,1404.4192,1282.1919,
1749130440.0085676,530.3302,358.62784,410.22705,254.36732,
1749130440.0124586,0.0,0.0,0.0,0.0,
1749130440.0163498,249.49948,532.27734,383.58664,452.3561,
1749130440.0202410,1268.4734,1450.0,1386.3639,1450.0,
1749130440.0241320,1450.0,1448.5839,1450.0,1399.9939,
1749130440.0280232,661.8507,498.91046,543.25214,371.72678,
1749130440.0319142,0.0,0.0,0.0,0.0,
1749130440.0358055,123.37789,370.6647,252.15468,323.22528,
1749130440.0396967,1129.6954,1374.681,1308.9208,1362.1132,
1749130440.0435877,1450.0,1450.0,1450.0,1450.0,
1749130440.0474789,737.9662,586.08923,486.34256,476.34134,
1749130440.0513699,0.0,0.0,0.0,0.0,
1749130440.0552611,49.9176,282.7779,184.09326,229.58554,
1749130440.0591524,991.3599,1281.9264,1156.4243,1244.2227,
1749130440.0630434,1450.0,1450.0,1450.0,1450.0,
1749130440.0669346,963.1264,787.1757,867.80505,674.68414,
1749130440.0708256,15.665629,0.0,0.0,0.0,
1749130440.0747168,0.0,168.95868,62.219986,133.73314,
1749130440.0786080,865.23834,1183.4188,1047.9155,1132.6161,
1749130440.0824990,1450.0,1450.0,1450.0,1450.0,
1749130440.0863903,1105.3562,938.3446,997.9094,835.94275,
1749130440.0902812,110.278946,0.0,19.205885,0.0,
1749130440.0941725,0.0,44.518707,0.0,40.181896,
1749130440.0980635,731.68225,1038.7108,957.1965,1006.58307,
1749130440.1019547,1450.0,1450.0,1450.0,1450.0,
1749130440.1058459,1238.2042,1080.2203,1117.2161,981.8013,
1749130440.1097369,221.26595,69.56602,121.16523,21.684063,
1749130440.1136281,0.0,0.0,0.0,0.0,
1749130440.1175191,606.4457,930.202,790.8045,880.1074,
1749130440.1214104,1450.0,1450.0,1450.0,1450.0,
1749130440.1253016,1362.6442,1190.3223,1296.0874,1133.9437,
1749130440.1291926,359.07037,174.62308,297.82397,131.16646,
1749130440.1330838,0.0,0.0,0.0,0.0,
1749130440.1369748,468.46426,787.9723,642.82184,735.84204,
1749130440.1408660,1446.2827,1450.0,1450.0,1450.0,
1749130440.1447573,1450.0,1298.2115,1362.9982,1248.0284,
1749130440.1486483,480.58963,292.24805,371.46127,230.73613,
1749130440.1525395,0.0,0.0,0.0,0.0,
1749130440.1564305,351.63583,664.7714,523.69226,615.2963,
1749130440.1603217,1352.643,1450.0,1450.0,1450.0,
1749130440.1642127,1450.0,1409.6411,1450.0,1372.9994,
1749130440.1681039,631.4045,455.54233,522.0106,375.17853,
1749130440.1719952,0.0,0.0,0.0,0.0,
1749130440.1758862,228.25795,508.0266,402.08447,480.0586,
1749130440.1797774,1240.9479,1443.6276,1379.018,1448.4069,
1749130440.1836684,1450.0,1450.0,1450.0,1450.0,
1749130440.1875596,773.7228,595.91345,662.6473,506.6105,
1749130440.1914508,0.0,0.0,0.0,0.0,
1749130440.1953418,122.31582,384.7372,278.70657,361.63705,
1749130440.1992331,1123.9425,1365.0339,1276.5275,1355.0327,
1749130440.2031240,1450.0,1450.0,1450.0,1450.0,
1749130440.2070153,924.53766,734.86847,845.76697,676.8968,
1749130440.2109065,0.0,0.0,0.0,0.0,
1749130440.2147975,25.312824,260.73978,154.0896,239.05573,
1749130440.2186887,1000.83014,1270.4205,1172.1785,1253.4274,
1749130440.2225797,1450.0,1450.0,1450.0,1450.0,
1749130440.2264709,1059.9524,891.3477,972.9506,820.80817,
1749130440.2303619,71.424644,0.0,0.0,0.0,
1749130440.2342532,0.0,161.25862,96.29494,145.15047,
1749130440.2381444,843.11176,1192.0924,1108.2769,1160.9381,
1749130440.2420354,1450.0,1450.0,1450.0,1450.0,
1749130440.2459266,1199.704,1040.5695,1113.0563,972.8621,
1749130440.2498176,180.46451,23.542696,89.65696,0.0,
1749130440.2537088,0.0,20.267962,0.0,26.286394,
1749130440.2576001,743.8076,1036.6752,947.01825,1023.8418,
1749130440.2614911,1450.0,1450.0,1450.0,1450.0,
1749130440.2653823,1325.56,1150.2289,1272.1022,1103.6746,
1749130440.2692733,324.81842,123.82043,261.35934,90.188,
1749130440.2731645,0.0,0.0,0.0,0.0,
1749130440.2770557,606.0917,905.3317,799.83215,892.0558,
1749130440.2809467,1450.0,1450.0,1450.0,1450.0,
1749130440.2848380,1415.394,1263.2516,1340.5176,1239.0894,
1749130440.2887290,448.55032,248.26039,352.78644,219.2303,
1749130440.2926202,0.0,0.0,0.0,0.0,
1749130440.2965114,470.6769,774.96185,652.91156,768.5009,
1749130440.3004024,1428.0504,1450.0,1450.0,1450.0,
1749130440.3042936,1450.0,1372.5569,1427.4309,1350.3418,
1749130440.3081846,591.75366,401.1109,485.6345,358.80487,
1749130440.3120759,0.0,0.0,0.0,0.0,
1749130440.3159668,343.13922,625.03204,525.6394,644.4149,
1749130440.3198581,1337.5084,1450.0,1445.3092,1450.0,
1749130440.3237493,1450.0,1450.0,1450.0,1442.3884,
1749130440.3276403,740.7099,541.305,618.8366,506.07947,
1749130440.3315315,0.0,0.0,0.0,0.0,
1749130440.3354225,263.3065,570.77765,543.6947,550.5097,
1749130440.3393137,1273.3413,1450.0,1438.8481,1450.0,
1749130440.3432050,1450.0,1450.0,1450.0,1450.0,
1749130440.3470960,887.3649,673.445,795.84937,665.3024,
1749130440.3509872,0.0,0.0,0.0,0.0,
1749130440.3548782,106.03064,352.16687,232.15224,383.0556,
1749130440.3587694,1121.7299,1338.0394,1245.9043,1360.2545,
1749130440.3626606,1450.0,1450.0,1450.0,1450.0,
1749130440.3665516,1028.9751,834.7922,916.3065,823.8174,
1749130440.3704429,23.188671,0.0,0.0,0.0,
1749130440.3743339,5.841421,196.66118,170.10925,262.50992,
1749130440.3782251,1005.16693,1220.3259,1202.8901,1281.9264,
1749130440.3821161,1450.0,1450.0,1450.0,1450.0,
1749130440.3860073,1153.1497,974.0127,1038.4453,963.3919,
1749130440.3898985,130.90094,0.0,27.702496,0.0,
1749130440.3937895,0.0,85.9397,13.984008,122.22731,
1749130440.3976808,874.089,1116.3309,1017.3808,1164.0359,
1749130440.4015718,1450.0,1450.0,1450.0,1450.0,
1749130440.4054630,1285.1127,1103.9401,1190.6763,1097.5676,
1749130440.4093542,275.8744,68.94647,168.16212,53.634865,
1749130440.4132452,0.0,0.0,0.0,7.6115484,
1749130440.4171364,725.48676,1002.4232,876.5672,1044.1982,
1749130440.4210274,1450.0,1450.0,1450.0,1450.0,
1749130440.4249187,1367.8661,1204.1293,1275.908,1208.8201,
1749130440.4288099,387.74643,178.16335,267.20074,171.25984,
1749130440.4327009,0.0,0.0,0.0,0.0,
1749130440.4365921,577.4156,861.07855,729.6466,909.6686,
1749130440.4404831,1450.0,1450.0,1450.0,1450.0,
1749130440.4443743,1450.0,1316.0898,1369.1937,1313.0807,
1749130440.4482653,527.67505,319.0655,389.07404,305.52402,
1749130440.4521565,0.0,0.0,0.0,0.0,
1749130440.4560478,437.2215,706.0154,609.72046,774.51935,
1749130440.4599388,1400.5249,1450.0,1450.0,1450.0,
1749130440.4638300,1450.0,1414.3319,1450.0,1402.0295,
1749130440.4677210,673.7991,467.22516,544.3142,449.7009,
1749130440.4716122,0.0,0.0,0.0,0.0,
1749130440.4755034,304.72745,567.41437,450.05493,631.316,
1749130440.4793944,1307.7703,1450.0,1424.5986,1450.0,
1749130440.4832857,1450.0,1450.0,1450.0,1450.0,
1749130440.4871767,811.16095,534.2245,573.52136,573.2558,
1749130440.4910679,0.0,0.0,0.0,0.0,
1749130440.4949591,183.91626,440.0537,334.2886,486.34256,
1749130440.4988501,1203.8638,1390.9662,1312.1956,1419.8193,
1749130440.5027413,1450.0,1450.0,1450.0,1450.0,
1749130440.5066323,954.9838,745.2237,837.0048,736.37305,
1749130440.5105236,0.0,0.0,0.0,0.0,
