timestamps,eeg_1,eeg_2,eeg_3,eeg_4,note
1751399083.5360360,717.78674,272.2456,107.97778,564.9362,
1751399083.5399280,635.21027,147.71715,0.0,413.23627,
1751399083.5438199,644.3264,855.3256,709.99817,719.3798,
1751399083.5477118,721.41547,1336.5348,1450.0,1025.3464,
1751399083.5516038,771.33307,997.6439,1265.4642,920.9974,
1751399083.5554957,735.57654,317.38388,334.81964,601.2238,
1751399083.5593877,657.6024,121.96179,0.0,411.9087,
1751399083.5632796,644.8575,796.4689,760.88934,668.9312,
1751399083.5671716,723.5397,1356.4487,1450.0,1011.89343,
1751399083.5710635,789.65393,1100.4883,1386.3639,960.1172,
1751399083.5749555,761.15485,412.43973,502.00818,647.9552,
1751399083.5788474,679.37494,244.54312,0.0,418.54666,
1751399083.5827394,659.90356,801.8678,454.12622,618.9251,
1751399083.5866313,728.76154,1237.4962,1389.7272,993.92664,
1751399083.5905230,776.555,1040.2155,1450.0,987.20013,
1751399083.5944149,740.7984,511.12433,752.3927,680.26,
1751399083.5983069,671.05536,81.16035,0.0,422.44095,
1751399083.6021988,648.4862,483.86438,299.5941,564.8477,
1751399083.6060908,706.90045,1245.8158,1346.713,950.82404,
1751399083.6099827,764.96063,1291.3081,1314.2312,996.3163,
1751399083.6138747,749.64905,589.6295,570.0696,710.1752,
1751399083.6177666,667.69214,68.68095,0.0,421.37888,
1751399083.6216586,619.0136,410.6696,178.07483,499.53,
1751399083.6255505,664.32886,1205.0144,1209.7052,889.3121,
1751399083.6294425,731.77075,1287.3253,1450.0,981.9783,
1751399083.6333344,726.6374,637.777,819.7461,713.89246,
1751399083.6372263,647.6012,103.19844,0.0,404.9167,
1751399083.6411183,584.3191,340.2185,235.24995,414.38687,
1751399083.6450102,616.4469,1101.4619,1107.5688,793.37115,
1751399083.6489022,678.66693,1306.0001,1450.0,931.52966,
1751399083.6527941,675.48065,736.28455,980.1196,695.1291,
1751399083.6566861,599.3652,168.87016,37.61521,376.77167,
1751399083.6605780,534.66705,223.65562,0.0,329.77478,
1751399083.6644700,573.0788,974.0127,962.15283,706.1924,
1751399083.6683619,664.41736,1326.5336,1450.0,928.1664,
1751399083.6722538,687.8716,861.43256,966.4011,744.0731,
1751399083.6761458,636.9804,192.14735,72.75224,425.9812,
1751399083.6800377,575.557,157.01031,0.0,329.33224,
1751399083.6839297,593.43524,920.2008,828.3312,677.3393,
1751399083.6878216,669.1967,1274.4033,1450.0,937.1055,
1751399083.6917133,700.528,869.48663,1185.72,791.9551,
1751399083.6956053,652.2035,249.14546,214.62798,472.62405,
1751399083.6994972,596.9755,101.16279,0.0,339.33347,
1751399083.7033892,617.77454,846.74054,917.98816,659.0185,
1751399083.7072811,704.24524,1334.0566,1450.0,975.78284,
1751399083.7111731,764.96063,994.01514,1264.9331,894.0029,
1751399083.7150650,723.5397,351.1933,390.66714,575.8225,
1751399083.7189569,646.18506,154.26662,0.0,389.69357,
1751399083.7228489,638.75055,729.29254,568.565,648.3092,
1751399083.7267408,720.61896,1305.1151,1434.5999,992.59906,
1751399083.7306328,784.6091,1121.0219,1450.0,950.20447,
1751399083.7345247,759.2077,448.55032,694.6866,646.5391,
1751399083.7384167,686.544,70.09705,0.0,423.94556,
1751399083.7423086,668.40015,588.1249,408.63394,625.12054,
1751399083.7462006,745.0467,1300.5127,1429.909,999.85657,
1751399083.7500925,804.08044,1243.0721,1305.2921,1003.0428,
1751399083.7539845,777.3515,503.86682,496.16675,702.91766,
1751399083.7578764,713.71545,61.86596,0.0,458.109,
1751399083.7617683,701.6786,533.1624,287.46872,609.89746,
1751399083.7656603,755.2249,1264.4021,1297.3265,985.87256,
1751399083.7695522,806.3816,1248.9135,1450.0,1037.9143,
1751399083.7734442,785.58264,578.5662,730.7087,753.10077,
1751399083.7773361,723.0086,106.73869,0.0,466.25162,
1751399083.7812281,677.1623,443.23993,377.3027,543.6947,
1751399083.7851200,724.95575,1165.1865,1218.4673,939.4067,
1751399083.7890120,821.4277,1266.8802,1450.0,1054.1995,
1751399083.7929039,804.7885,677.4278,889.57764,801.2482,
1751399083.7967956,719.9109,178.60587,0.0,498.73343,
1751399083.8006876,692.82794,327.5621,59.653297,515.2841,
1751399083.8045795,748.941,1078.0077,1080.9283,910.3766,
1751399083.8084714,817.4449,1340.8716,1450.0,1076.2375,
1751399083.8123634,815.8518,824.61395,891.5248,849.57275,
1751399083.8162553,759.4732,170.37477,0.0,535.28656,
1751399083.8201473,693.35895,238.25917,0.0,486.9621,
1751399083.8240392,708.228,996.2278,948.9654,846.56354,
1751399083.8279312,781.51135,1411.8538,1450.0,1058.0938,
1751399083.8318231,800.27466,853.82104,1026.0544,883.11664,
1751399083.8357151,743.36505,96.560455,74.52237,564.7592,
1751399083.8396070,671.40936,168.16212,0.0,452.97565,
1751399083.8434989,694.6866,954.8068,948.5229,795.67236,
1751399083.8473909,784.52057,1360.2545,1450.0,1070.0421,
1751399083.8512828,811.6035,922.9445,1167.4877,926.13074,
1751399083.8551748,756.1985,270.2985,299.06305,600.9583,
1751399083.8590667,684.95087,180.90704,0.0,455.0113,
1751399083.8629587,702.2096,831.51746,691.2348,755.4904,
1751399083.8668506,780.4492,1336.4463,1450.0,1060.6604,
1751399083.8707426,804.08044,1048.9775,1345.828,949.3194,
1751399083.8746345,755.4904,379.42685,475.54477,618.48254,
1751399083.8785264,681.4991,83.10749,0.0,420.6708,
1751399083.8824184,667.69214,657.6024,537.4107,665.3024,
1751399083.8863103,751.9502,1322.3738,1450.0,1022.5142,
1751399083.8902023,805.408,1144.476,1123.854,985.076,
1751399083.8940942,763.1905,399.96033,312.78156,670.3473,
1751399083.8979859,691.58887,53.280838,0.0,435.5399,
1751399083.9018779,680.1715,595.73645,396.33157,627.51025,
1751399083.9057698,734.77997,1282.9884,1379.8145,993.21857,
1751399083.9096618,781.77686,1164.2129,1421.7665,993.4841,
1751399083.9135537,769.4744,484.04138,575.9995,703.53723,
1751399083.9174457,690.6153,69.56602,0.0,443.23993,
1751399083.9213376,649.54834,518.20483,455.71933,562.8121,
1751399083.9252295,729.11554,1232.2743,1290.423,960.91376,
1751399083.9291215,788.3263,1218.4673,1450.0,1021.0981,
1751399083.9330134,766.2882,591.66516,759.2962,740.9754,
1751399083.9369054,700.705,126.2986,0.0,455.27682,
1751399083.9407973,661.31964,380.40042,149.48727,521.9221,
1751399083.9446893,721.85803,1148.9012,1190.8533,930.7331,
1751399083.9485812,797.7965,1313.5232,1450.0,1052.1638,
1751399083.9524732,788.4148,735.3995,749.0295,789.47687,
1751399083.9563651,700.35095,125.76756,0.0,471.8275,
1751399083.9602571,648.8403,274.01575,70.09705,480.41263,
1751399083.9641490,706.1924,1078.0962,1086.6813,880.8155,
1751399083.9680409,775.31586,1324.4094,1398.9318,1049.5087,
1751399083.9719329,777.88257,761.9514,847.8911,826.20703,
1751399083.9758248,727.61096,143.64586,82.39944,513.0715,
1751399083.9797168,674.2416,205.51181,0.0,462.0033,
1751399083.9836087,691.4118,1011.89343,984.6335,830.2783,
1751399083.9875007,779.03314,1360.6085,1450.0,1064.4662,
1751399083.9913926,799.3896,863.2912,1104.0286,879.04535,
1751399083.9952846,726.5489,212.59232,211.0877,547.766,
1751399083.9991765,658.4874,216.66362,82.487946,444.47903,
1751399084.0030682,678.75543,912.5008,821.3392,782.48486,
1751399084.0069602,765.7572,1346.005,1450.0,1056.6776,
1751399084.0108521,795.4953,983.30585,1277.3241,910.1111,
1751399084.0147440,737.5237,332.784,307.73666,591.2226,
1751399084.0186360,684.50836,128.24574,0.0,446.8687,
1751399084.0225279,684.77386,773.1917,678.93243,725.13275,
1751399084.0264199,755.1364,1366.45,1450.0,1039.773,
1751399084.0303118,806.2046,1091.8147,1078.2732,948.6999,
1751399084.0342038,765.40314,347.91858,245.33968,628.39526,
1751399084.0380957,683.0922,102.84441,0.0,433.68124,
1751399084.0419877,687.3405,708.7591,527.4095,678.31287,
1751399084.0458796,762.571,1303.4335,1449.2035,1028.2671,
1751399084.0497715,804.6115,1108.8079,1412.4733,975.16327,
1751399084.0536635,776.8205,422.88348,501.38864,666.1875,
1751399084.0575554,698.2268,81.425865,0.0,433.94678,
1751399084.0614474,674.94965,645.65405,591.3996,620.4297,
1751399084.0653393,752.56976,1303.6105,1389.9927,1000.1221,
1751399084.0692313,807.6207,1182.0912,1450.0,1005.9635,
1751399084.0731232,780.3607,518.8244,687.252,711.41425,
1751399084.0770152,709.2901,249.14546,0.0,443.771,
1751399084.0809071,680.5256,690.0842,280.74222,567.23737,
1751399084.0847991,745.84326,1199.527,1292.1931,965.7816,
1751399084.0886910,807.8862,1124.208,1450.0,1030.8337,
1751399084.0925829,785.75964,604.49854,751.3306,750.00305,
1751399084.0964749,721.85803,86.559235,0.0,466.25162,
1751399084.1003668,674.2416,379.0728,171.43686,534.0475,
1751399084.1042585,727.78796,1171.559,1202.2706,929.40546,
1751399084.1081505,801.6908,1343.7039,1312.6381,1046.5879,
1751399084.1120424,799.0356,711.23724,735.84204,797.35394,
1751399084.1159344,727.69946,103.46396,20.887505,482.35977,
1751399084.1198263,659.107,299.6826,38.32326,472.27005,
1751399084.1237183,712.2993,1123.5885,1069.8651,868.6016,
1751399084.1276102,805.1425,1360.697,1450.0,1060.3949,
1751399084.1315022,811.42645,783.19293,1002.2462,837.1818,
1751399084.1353941,734.77997,177.89783,113.46518,510.15076,
1751399084.1392860,675.8347,266.75824,143.20332,458.55154,
1751399084.1431780,709.4671,996.4933,950.47,823.8174,
1751399084.1470699,787.7953,1354.0591,1450.0,1044.9948,
1751399084.1509619,806.4701,895.6846,1173.5946,867.097,
1751399084.1548538,749.295,278.44107,172.0564,547.3234,
1751399084.1587458,680.3485,186.30592,0.0,434.03528,
1751399084.1626377,695.92566,871.2568,805.9391,763.98706,
1751399084.1665297,777.086,1359.9005,1450.0,1034.728,
1751399084.1704216,808.41724,1038.0028,1088.8054,896.4811,
1751399084.1743135,763.54456,308.26773,184.27028,586.17773,
1751399084.1782055,701.3245,124.52847,0.0,435.80542,
1751399084.1820974,693.89,812.5771,657.6024,714.689,
1751399084.1859894,757.34906,1276.1735,1450.0,1025.3464,
1751399084.1898813,804.6115,1020.7441,1366.981,945.7792,
1751399084.1937733,766.9963,374.382,393.9419,631.0505,
1751399084.1976652,701.9441,108.50882,0.0,434.03528,
1751399084.2015572,685.74744,762.1284,705.7499,673.445,
1751399084.2054491,754.33984,1332.8175,1450.0,1020.39,
1751399084.2093408,811.33795,1119.5172,1425.0413,980.7392,
1751399084.2132328,779.6527,434.65482,558.2097,671.40936,
1751399084.2171247,692.56244,88.7719,0.0,424.6536,
1751399084.2210166,669.9048,640.9632,407.12933,600.25024,
1751399084.2249086,744.5157,1298.3,1366.273,985.076,
1751399084.2288005,804.9655,1231.6548,1450.0,995.6968,
1751399084.2326925,785.58264,586.8858,731.68225,700.882,
1751399084.2365844,712.5649,84.78911,0.0,437.84106,
1751399084.2404764,683.8888,458.28604,273.75024,565.7328,
1751399084.2443683,748.0559,1242.541,1321.1348,963.1264,
1751399084.2482603,804.25745,1336.0038,1283.785,1011.80493,
1751399084.2521522,797.44244,631.316,583.434,743.27655,
1751399084.2560441,718.8488,76.64652,0.0,461.8263,
1751399084.2599361,660.52313,381.728,135.32625,500.68057,
1751399084.2638280,725.5753,1192.4464,1169.8773,893.38336,
1751399084.2677200,792.0436,1309.4519,1450.0,1017.73486,
1751399084.2716119,800.8057,681.85315,859.3969,782.9274,
1751399084.2755039,740.9754,137.18489,25.755356,481.7402,
1751399084.2793958,667.78064,318.8,193.65196,467.84473,
1751399084.2832878,692.2969,1061.811,1059.9524,840.5451,
1751399084.2871797,766.6423,1314.4967,1450.0,1022.9567,
1751399084.2910717,782.7504,774.96185,1000.65314,807.35516,
1751399084.2949636,713.1844,191.17378,66.291275,479.52756,
1751399084.2988555,650.8759,217.28316,0.0,430.0525,
1751399084.3027475,685.57043,964.3655,926.9273,803.1069,
1751399084.3066394,767.88135,1352.997,1450.0,1038.0028,
1751399084.3105311,792.1321,926.21924,965.6931,862.0521,
1751399084.3144231,721.32697,221.8855,93.46274,524.40027,
1751399084.3183150,644.6805,115.1468,0.0,403.05804,
1751399084.3222070,673.1795,875.5936,806.2046,744.3386,
1751399084.3260989,745.75476,1373.1765,1450.0,1023.0452,
1751399084.3299909,775.22736,870.3717,953.1252,893.6489,
1751399084.3338828,731.2397,208.25551,190.0232,577.1501,
1751399084.3377748,656.71735,107.800766,0.0,411.37766,
1751399084.3416667,653.97363,803.0184,844.1738,690.9693,
1751399084.3455586,732.12476,1343.4384,1450.0,1010.0348,
1751399084.3494506,782.48486,1017.4693,1270.9515,922.9445,
1751399084.3533425,736.8156,351.28183,416.15698,609.0124,
1751399084.3572345,652.55756,131.43198,0.0,404.29715,
1751399084.3611264,664.41736,696.27966,522.3646,648.57477,
1751399084.3650184,752.3927,1298.477,1408.6675,1003.2198,
1751399084.3689103,784.7861,1138.192,1425.7493,957.81604,
1751399084.3728023,742.303,489.17474,700.26245,657.7794,
1751399084.3766942,667.86914,61.0694,0.0,420.93634,
1751399084.3805861,645.477,521.03705,361.46005,587.0628,
1751399084.3844781,709.4671,1270.2435,1409.8181,956.66547,
1751399084.3883700,770.1825,1218.0248,1171.6475,974.1012,
1751399084.3922620,757.8801,516.61176,428.45938,698.2268,
1751399084.3961539,691.2348,76.203995,0.0,446.69168,
1751399084.4000459,666.3645,480.0586,236.22353,559.89136,
1751399084.4039378,715.043,1244.3112,1268.5619,929.5825,
1751399084.4078298,767.79285,1250.2411,1450.0,987.8197,
1751399084.4117217,764.34106,611.13654,729.02704,750.09155,
1751399084.4156134,688.75665,120.191666,0.0,474.04016,
1751399084.4195054,640.5207,410.93512,301.27573,506.699,
1751399084.4233973,701.413,1147.4852,1159.6106,885.77185,
1751399084.4272892,775.7584,1266.9688,1450.0,1004.8129,
1751399084.4311812,777.52856,731.94775,928.96295,791.1585,
1751399084.4350731,723.6282,235.16145,12.921931,524.40027,
1751399084.4389651,672.02893,333.40353,20.444973,509.00018,
1751399084.4428570,673.3565,1049.2432,1041.1006,841.1646,
1751399084.4467490,738.67426,1320.4266,1450.0,999.76807,
1751399084.4506409,761.5974,859.751,936.48596,811.42645,
1751399084.4545329,711.8568,227.4614,36.553135,530.68427,
1751399084.4584248,659.63806,240.20631,0.0,482.09424,
1751399084.4623168,689.02216,987.11163,930.5561,816.2058,
1751399084.4662087,760.3583,1326.0911,1450.0,1018.53143,
1751399084.4701006,797.531,901.26044,1089.6906,878.2488,
1751399084.4739926,737.6122,284.548,200.64397,579.5398,
1751399084.4778845,652.469,214.8935,0.0,445.4526,
1751399084.4817765,662.7358,928.4319,955.6919,744.3386,
1751399084.4856684,751.0651,1348.8372,1450.0,1005.7865,
1751399084.4895604,795.3183,1002.0692,1288.1218,904.26965,
1751399084.4934523,743.6306,353.22894,386.68436,616.4469,
1751399084.4973443,676.1002,212.2383,0.0,457.31247,
1751399084.5012362,707.43146,827.8887,665.3909,727.3454,
1751399084.5051281,771.95264,1343.0844,1450.0,1009.8578,
1751399084.5090201,794.7873,1111.8171,1450.0,925.06866,
1751399084.5129120,754.16284,487.2276,654.8587,644.1494,
1751399084.5168037,690.7923,170.19777,0.0,448.72733,
1751399084.5206957,695.92566,688.66815,508.82318,662.7358,
1751399084.5245876,771.4216,1328.4807,1450.0,999.85657,
1751399084.5284796,816.7369,1196.8717,1225.2823,969.41034,
1751399084.5323715,784.6976,507.7611,487.93567,694.421,
1751399084.5362635,696.27966,149.48727,0.0,463.3309,
1751399084.5401554,677.78186,631.4045,371.10724,618.48254,
1751399084.5440474,765.8457,1297.769,1359.5465,976.49084,
1751399084.5479393,819.3035,1242.0985,1450.0,997.28986,
1751399084.5518312,796.20337,595.55945,725.8408,739.29376,
1751399084.5557232,711.7683,155.06317,0.0,484.92645,
1751399084.5596151,678.75543,571.48566,491.1219,580.2478,
1751399084.5635071,763.72156,1252.8962,1285.6437,949.4964,
1751399084.5673990,827.8887,1272.1907,1450.0,1017.91187,
1751399084.5712910,802.3103,703.27167,934.3618,778.1481,
1751399084.5751829,733.0983,375.26706,0.0,505.37143,
1751399084.5790749,696.27966,597.8606,138.15846,532.01184,
1751399084.5829668,755.2249,1058.0938,1176.0728,900.10986,
1751399084.5868587,829.39325,1235.3721,1450.0,1023.3107,
1751399084.5907507,821.3392,825.853,856.1222,810.0989,
1751399084.5946426,761.7744,212.94635,0.0,541.65906,
1751399084.5985346,709.2901,323.75635,50.27162,525.46234,
1751399084.6024265,743.36505,1082.433,1058.2708,866.3004,
1751399084.6063185,825.5875,1327.1532,1450.0,1031.8959,
1751399084.6102104,839.21747,819.215,979.6771,857.5383,
1751399084.6141024,776.732,226.48782,124.8825,570.95465,
1751399084.6179941,705.5729,269.59042,0.0,479.8816,
1751399084.6218860,730.7087,1038.6223,987.02313,806.82416,
1751399084.6257780,825.41046,1352.82,1450.0,1024.9038,
1751399084.6296699,838.86346,893.29486,1152.9725,871.3453,
1751399084.6335618,765.9342,302.4263,282.8664,581.3099,
1751399084.6374538,700.35095,229.40854,77.88561,459.3481,
1751399084.6413457,732.6558,888.60406,803.54944,772.8377,
1751399084.6452377,812.7541,1342.5532,1450.0,1031.6304,
1751399084.6491296,831.78296,1002.1577,1370.8752,902.5881,
1751399084.6530216,785.4056,410.22705,458.99408,626.0056,
1751399084.6569135,738.67426,206.92792,0.0,484.83795,
1751399084.6608055,732.47876,797.6195,651.938,727.96497,
1751399084.6646974,798.8586,1359.9005,1450.0,1018.79694,
1751399084.6685894,848.8647,1169.8773,1294.3173,957.90454,
1751399084.6724813,800.36316,454.21472,437.2215,671.49786,
1751399084.6763732,731.59375,142.67229,0.0,474.04016,
1751399084.6802652,724.2477,725.04425,520.2405,672.6485,
1751399084.6841571,800.7172,1254.4894,1437.6976,999.3255,
1751399084.6880491,854.8831,1119.9597,1450.0,985.1645,
1751399084.6919410,838.68646,551.9258,618.12854,734.2489,
1751399084.6958330,783.0159,192.23586,0.0,522.2761,
1751399084.6997249,740.6214,680.9681,640.0781,644.4149,
1751399084.7036169,792.3976,1302.2828,1386.2754,968.61383,
1751399084.7075088,866.743,1229.4421,1450.0,1007.4681,
1751399084.7114007,868.9556,629.6344,803.1069,775.5814,
1751399084.7152927,787.5298,216.30959,0.0,517.14276,
1751399084.7191846,737.7007,519.1784,236.13503,592.19617,
1751399084.7230763,798.3275,1202.9786,1269.447,943.655,
1751399084.7269683,874.62006,1290.3345,1450.0,1014.63715,
1751399084.7308602,867.80505,729.8236,750.6226,787.5298,
1751399084.7347522,783.8125,175.41965,0.0,512.54047,
1751399084.7386441,725.9293,388.01196,149.92981,533.5165,
1751399084.7425361,771.15607,1137.307,1179.3475,888.78107,
1751399084.7464280,845.67847,1317.5945,1276.8815,1005.34393,
1751399084.7503200,863.82227,742.74554,756.1985,806.4701,
1751399084.7542119,801.2482,171.34834,60.892387,532.8969,
1751399084.7581038,726.1063,303.9309,11.063297,499.17596,
1751399084.7619958,753.72034,1088.6284,1053.58,836.20825,
1751399084.7658877,839.483,1332.375,1450.0,1006.3175,
1751399084.7697797,860.459,816.4713,1035.4362,840.10254,
1751399084.7736716,802.3988,249.32246,169.1357,561.75,
1751399084.7775636,742.74554,278.26407,128.68828,488.4667,
1751399084.7814555,768.6779,969.14484,919.5813,805.9391,
1751399084.7853475,835.2347,1311.8416,1450.0,1011.6279,
1751399084.7892394,838.50946,887.6305,1180.321,850.9003,
1751399084.7931314,797.35394,305.61252,240.38333,570.95465,
1751399084.7970233,737.4351,168.42764,0.0,452.97565,
1751399084.8009152,735.57654,819.4805,757.6146,729.38104,
1751399084.8048072,813.3736,1312.5496,1450.0,991.6255,
1751399084.8086991,833.19904,1003.2198,1037.4718,878.1603,
1751399084.8125911,792.66315,315.25974,201.2635,604.49854,
1751399084.8164830,725.6638,97.53403,0.0,443.68246,
1751399084.8203750,708.8476,734.0719,633.7942,679.02094,
1751399084.8242667,770.71356,1310.3369,1425.5723,956.84247,
1751399084.8281586,808.5058,943.21246,978.52655,894.6225,
1751399084.8320506,781.68835,303.04584,320.83563,632.46655,
1751399084.8359425,712.0338,98.59611,0.0,436.15942,
1751399084.8398345,686.01294,647.8667,574.76044,627.68726,
1751399084.8437264,765.22614,1245.8158,1405.3928,963.923,
1751399084.8476183,829.39325,1072.6973,1334.4991,947.19525,
1751399084.8515103,799.3896,455.98486,555.2005,683.3577,
1751399084.8554022,720.79596,145.59299,0.0,464.56998,
1751399084.8592942,688.2256,554.581,342.6967,597.1525,
1751399084.8631861,749.472,1204.3063,1332.9945,933.38824,
1751399084.8670781,801.7793,1181.6487,1450.0,956.0459,
1751399084.8709700,779.6527,594.9399,703.71423,708.8476,
1751399084.8748620,714.33496,112.845634,0.0,468.46426,
1751399084.8787539,684.0658,414.74088,213.91992,551.3062,
1751399084.8826458,762.925,1175.0107,1282.7229,918.8732,
1751399084.8865378,824.52545,1253.8699,1117.8356,989.76685,
1751399084.8904297,780.6263,606.4457,482.18274,731.0627,
1751399084.8943217,710.4407,101.2513,0.0,465.45505,
1751399084.8982136,670.2588,363.93823,87.17878,505.28293,
1751399084.9021056,720.53046,1148.8127,1140.4932,864.2648,
1751399084.9059975,796.99994,1274.4918,1450.0,983.12885,
1751399084.9098895,794.4332,704.33374,842.58075,766.7308,
1751399084.9137814,725.6638,166.21498,68.68095,492.6265,
1751399084.9176733,691.50037,335.61618,156.39078,494.83917,
1751399084.9215653,736.28455,1057.4742,1027.9131,848.5992,
1751399084.9254572,786.6447,1258.7377,1450.0,996.2278,
1751399084.9293489,781.2458,778.50214,1005.16693,809.2138,
1751399084.9332409,733.5409,238.43619,113.7307,540.597,
1751399084.9371328,691.67737,225.24873,0.0,476.1643,
1751399084.9410248,709.90967,932.2377,898.3397,787.9723,
1751399084.9449167,780.2722,1317.7715,1450.0,1003.1313,
1751399084.9488087,811.42645,953.2137,1046.9419,866.566,
1751399084.9527006,746.99384,283.2204,142.05273,569.3615,
1751399084.9565926,671.6749,156.30226,0.0,442.6204,
1751399084.9604845,696.01416,858.06934,772.30664,747.34784,
1751399084.9643764,778.85614,1318.4795,1450.0,1012.24744,
1751399084.9682684,819.4805,964.54254,1228.8225,901.08344,
1751399084.9721603,756.64105,300.65616,316.14478,602.63995,
1751399084.9760523,689.11066,135.14925,0.0,451.47104,
1751399084.9799442,728.58453,813.3736,808.9483,732.30176,
1751399084.9838362,781.4228,1307.9473,1450.0,1003.3083,
1751399084.9877281,804.16895,1019.859,1308.2128,907.3674,
1751399084.9916201,787.9723,397.57065,462.71133,646.8046,
1751399084.9955120,709.3786,172.58743,0.0,456.4274,
1751399084.9994040,689.28766,659.461,497.05182,644.592,
1751399085.0032959,802.2218,1252.8077,1400.1709,992.068,
1751399085.0071878,867.451,1135.0059,1426.0148,981.8013,
1751399085.0110798,778.1481,502.3622,707.16595,672.38293,
1751399085.0149717,670.87836,81.425865,0.0,417.83862,
1751399085.0188637,651.761,503.07025,334.02307,565.9983,
1751399085.0227556,762.2169,1233.8674,1388.665,949.67346,
1751399085.0266476,847.09454,1234.3984,1168.6382,997.46686,
1751399085.0305393,792.3976,535.02106,446.60318,712.2108,
1751399085.0344312,743.5421,69.831535,0.0,481.2977,
1751399085.0383232,724.0707,463.06537,200.46695,598.0376,
1751399085.0422151,786.6447,1244.0457,1257.5872,966.4896,
1751399085.0461071,831.3404,1263.3401,1371.2294,1004.9899,
1751399085.0499990,758.41113,588.56744,616.1814,707.697,
1751399085.0538909,717.78674,105.05707,0.0,475.45627,
1751399085.0577829,716.63617,401.1109,263.92603,553.25336,
1751399085.0616748,710.97174,1133.4127,1143.768,858.7774,
1751399085.0655668,766.0227,1286.0862,1450.0,969.14484,
1751399085.0694587,837.8899,805.408,846.121,832.668,
1751399085.0733507,751.0651,422.88348,20.799,540.951,
1751399085.0772426,651.8495,624.76654,20.710493,481.03217,
1751399085.0811346,708.5821,1203.6868,1027.1166,831.0749,
1751399085.0850265,825.7645,1450.0,1450.0,1036.3212,
1751399085.0889184,879.9304,1251.9227,1028.6211,907.89844,
1751399085.0928104,842.93475,632.8206,45.93481,648.3092,
1751399085.0967023,845.944,746.28577,0.0,636.00684,
1751399085.1005943,868.6901,1326.8876,956.1344,940.5573,
1751399085.1044862,844.6164,1450.0,1450.0,1053.049,
1751399085.1083782,858.9544,1314.3197,1329.1003,908.518,
1751399085.1122701,846.74054,771.51013,230.47061,663.4438,
1751399085.1161621,745.2237,822.48975,296.9389,504.13232,
1751399085.1200540,713.89246,1366.5385,1338.5704,750.00305,
1751399085.1239460,793.8137,1450.0,1450.0,1008.5302,
1751399085.1278379,833.11053,1446.4597,1450.0,915.06744,
1751399085.1317298,803.1069,1043.0477,575.46844,657.6024,
1751399085.1356215,708.6706,962.6839,457.932,472.00452,
1751399085.1395135,680.7026,1351.4924,1332.2865,686.721,
1751399085.1434054,803.90344,1441.0609,1429.201,1017.1153,
1751399085.1472974,873.0269,1450.0,1450.0,974.98627,
1751399085.1511893,809.9219,1121.2874,714.689,686.898,
1751399085.1550813,736.37305,842.58075,8.496613,487.75867,
1751399085.1589732,727.69946,1270.509,912.9433,684.95087,
1751399085.1628652,792.2206,1450.0,1450.0,1004.6359,
1751399085.1667571,813.90466,1450.0,1428.2274,954.36426,
1751399085.1706491,758.49963,1092.2572,662.1162,672.11743,
1751399085.1745410,699.2004,712.0338,0.0,463.15387,
1751399085.1784329,670.1703,1104.5596,412.52823,603.702,
1751399085.1823249,723.1856,1418.8457,1368.0431,936.30896,
1751399085.1862168,767.4388,1417.5182,1450.0,940.9998,
1751399085.1901088,730.0006,1000.65314,712.8304,685.57043,
1751399085.1940007,643.44135,543.16364,0.0,434.3008,
1751399085.1978927,588.74445,923.5641,432.7962,501.2116,
1751399085.2017846,665.922,1382.4696,1259.0918,873.8235,
1751399085.2056766,744.6927,1394.595,1450.0,954.45276,
1751399085.2095685,723.6282,946.66425,849.1302,707.6085,
1751399085.2134604,626.1826,444.47903,0.0,433.85828,
1751399085.2173524,579.9823,745.3122,114.52725,469.79187,
1751399085.2212443,669.5508,1299.1852,1163.5049,841.2531,
1751399085.2251363,742.3915,1395.4801,1450.0,958.25854,
1751399085.2290282,718.49475,982.86334,757.7916,741.949,
1751399085.2329202,645.91956,447.13422,0.0,471.91602,
1751399085.2368119,600.9583,572.4592,57.17512,456.2504,
1751399085.2407038,632.02405,1187.3131,1047.0305,783.0159,
1751399085.2445958,715.8396,1368.0431,1450.0,944.18604,
1751399085.2484877,766.3767,964.0115,1007.55664,801.1597,
1751399085.2523797,700.705,430.31802,125.502045,532.01184,
1751399085.2562716,664.9484,498.55643,0.0,487.49313,
1751399085.2601635,703.36017,1169.9658,997.28986,805.5851,
1751399085.2640555,715.39703,1402.5605,1450.0,947.5493,
1751399085.2679474,767.61584,993.57263,1214.4845,825.32196,
1751399085.2718394,769.563,469.79187,309.3298,596.7985,
1751399085.2757313,668.8427,474.6597,111.518036,449.3469,
1751399085.2796233,655.3012,1030.3912,835.0577,702.74066,
1751399085.2835152,741.2409,1384.4167,1450.0,954.18726,
1751399085.2874072,794.1677,1118.5436,1405.0388,868.9556,
1751399085.2912991,779.03314,581.3984,501.1231,625.03204,
1751399085.2951910,729.20404,365.88538,0.0,474.92523,
1751399085.2990830,710.70624,880.2844,676.6313,688.3141,
1751399085.3029749,769.563,1357.8649,1450.0,964.71954,
1751399085.3068669,812.4885,1161.3807,1304.23,895.065,
1751399085.3107588,760.0928,560.42236,455.0998,597.418,
1751399085.3146508,683.8888,299.85962,0.0,402.17297,
1751399085.3185427,679.46344,796.4689,544.4912,611.22504,
1751399085.3224347,766.0227,1344.0579,1445.4862,933.47675,
1751399085.3263266,839.483,1247.3204,1450.0,937.017,
1751399085.3302186,803.2839,668.6657,617.15497,676.8083,
1751399085.3341105,723.6282,209.76012,0.0,446.7802,
1751399085.3380024,704.7763,632.5551,665.6565,599.89624,
1751399085.3418941,767.79285,1281.1299,1395.2146,927.6354,
1751399085.3457861,842.2267,1175.7188,1450.0,953.2137,
1751399085.3496780,850.45776,664.15186,811.33795,738.76276,
1751399085.3535700,755.933,326.94257,0.0,476.1643,
1751399085.3574619,695.2176,588.2134,256.58,535.37506,
1751399085.3613539,760.0928,1185.2775,1283.3425,885.1523,
1751399085.3652458,836.29675,1234.7524,1450.0,963.0379,
1751399085.3691378,849.4842,734.77997,780.4492,756.0215,
1751399085.3730297,776.2009,251.44662,0.0,488.6437,
1751399085.3769217,702.2981,443.41696,161.96667,495.4587,
1751399085.3808136,753.1893,1120.3137,1184.0383,836.47375,
1751399085.3847055,829.12775,1235.1066,1211.4753,950.73553,
1751399085.3885975,830.0128,725.6638,759.1192,752.1272,
1751399085.3924894,748.941,222.15102,74.876396,466.78265,
1751399085.3963814,669.6393,305.43552,2.0356467,420.3168,
1751399085.4002733,703.53723,998.7945,1072.9628,754.6054,
1751399085.4041653,780.5378,1180.852,1450.0,905.7743,
1751399085.4080572,766.9078,711.9453,960.91376,708.4935,
1751399085.4119492,693.00494,220.55789,164.44485,421.73288,
1751399085.4158411,648.7518,276.67093,79.036194,359.4244,
1751399085.4197330,655.1242,856.83026,911.9697,655.3012,
1751399085.4236250,705.3073,1115.5344,1450.0,834.8807,
1751399085.4275169,721.32697,771.77563,1003.0428,686.10144,
1751399085.4314089,668.7542,256.22595,216.04407,412.79376,
1751399085.4353008,599.0997,142.31825,0.0,295.3458,
1751399085.4391928,616.0044,719.7339,753.10077,587.4168,
1751399085.4430845,711.5028,1120.2252,1450.0,858.7774,
1751399085.4469764,744.9582,854.17505,989.4128,755.3134,
1751399085.4508684,697.25323,281.09625,177.36678,474.21716,
1751399085.4547603,628.39526,93.905266,0.0,317.56088,
1751399085.4586523,639.19305,655.7438,627.86426,573.87537,
1751399085.4625442,727.78796,1170.3198,1443.008,874.97406,
1751399085.4664361,773.5458,906.4823,1171.559,816.2058,
1751399085.4703281,728.85004,301.89526,383.49814,542.45557,
1751399085.4742200,659.284,99.65818,0.0,360.30948,
1751399085.4781120,677.87036,605.9147,572.5478,577.50415,
1751399085.4820039,802.8414,1134.4747,1387.1605,935.0699,
1751399085.4858959,859.2199,994.7232,1253.0734,918.6962,
1751399085.4897878,779.21014,397.92468,502.00818,614.7653,
1751399085.4936798,695.83716,101.78233,0.0,388.01196,
1751399085.4975717,707.697,495.90125,354.64505,559.0063,
1751399085.5014637,779.38715,1050.6592,1338.1279,902.411,
1751399085.5053556,854.7061,1028.6211,1362.2017,948.7884,
1751399085.5092475,868.15906,547.589,650.6989,738.4087,
1751399085.5131395,775.5814,104.34902,0.0,472.8896,
1751399085.5170314,725.6638,367.83252,204.0072,543.7832,
1751399085.5209234,795.3183,1040.9235,1285.5552,899.93286,
1751399085.5248153,859.574,1099.8688,1079.1583,970.738,
1751399085.5287073,838.50946,546.8809,430.40652,737.7007,
1751399085.5325992,789.38837,106.11915,0.0,506.522,
1751399085.5364912,791.9551,383.49814,96.206436,599.2767,
1751399085.5403831,815.9403,1063.5812,1169.5233,910.1996,
1751399085.5442750,833.28754,1110.755,1420.8813,963.1264,
1751399085.5481668,823.3748,615.4733,717.52124,759.7388,
1751399085.5520587,763.0135,168.33913,54.519928,504.04382,
1751399085.5559506,712.7419,329.86328,139.75157,495.6357,
1751399085.5598426,773.4572,972.9506,1030.4797,856.2107,
1751399085.5637345,861.9636,1165.098,1450.0,1025.6119,
1751399085.5676265,858.06934,730.8857,930.202,837.8899,
1751399085.5715184,776.555,371.63828,116.38589,555.2005,
1751399085.5754104,717.3442,363.4072,0.0,493.06903,
1751399085.5793023,763.54456,775.22736,811.16095,829.21625,
1751399085.5831943,833.28754,1131.7311,1450.0,1018.88544,
1751399085.5870862,875.32806,855.1486,959.3206,886.5684,
1751399085.5909781,834.0841,255.60641,120.368675,622.1113,
1751399085.5948701,736.10754,151.69994,0.0,475.72177,
1751399085.5987620,740.6214,779.47565,788.1493,755.579,
1751399085.6026540,818.15295,1214.927,1430.6171,1004.37036,
1751399085.6065459,847.09454,874.089,917.2801,882.05457,
1751399085.6104379,799.0356,274.81232,222.0625,603.9675,
1751399085.6143298,730.6202,138.06995,0.0,460.4987,
1751399085.6182218,730.8857,730.8857,783.0159,710.0867,
1751399085.6221137,806.1161,1139.7852,1450.0,981.2702,
1751399085.6260056,845.2359,875.5936,998.883,901.34894,
1751399085.6298976,797.885,346.50247,314.46317,627.0677,
1751399085.6337895,702.4751,116.474396,0.0,428.99042,
1751399085.6376815,689.7302,577.3271,472.35855,628.12976,
1751399085.6415734,771.15607,1101.1964,1378.6638,941.1768,
1751399085.6454654,821.78174,947.46075,1038.6223,910.4651,
1751399085.6493571,778.50214,401.90747,454.74576,643.5299,
1751399085.6532490,697.07623,43.0141,0.0,429.43295,
1751399085.6571410,668.40015,426.2467,262.68692,574.05237,
1751399085.6610329,727.2569,1050.7477,1409.9066,904.26965,
1751399085.6649249,766.6423,1000.65314,959.9402,904.5352,
1751399085.6688168,741.6835,411.73166,111.42953,652.55756,
1751399085.6727087,672.6485,32.74736,0.0,422.88348,
1751399085.6766007,619.8102,370.3992,149.13326,505.37143,
1751399085.6804926,661.05414,1015.34515,1266.7032,837.4473,
1751399085.6843846,711.23724,981.71277,935.0699,882.58563,
1751399085.6882765,692.82794,439.69968,84.16956,653.35406,
1751399085.6921685,616.0929,55.759018,30.977232,406.5983,
1751399085.6960604,560.9534,269.50192,90.099495,441.82385,
1751399085.6999524,612.1101,857.98083,1136.6874,787.0872,
1751399085.7038443,672.737,939.84924,941.7964,886.6569,
1751399085.7077363,656.62885,456.6044,0.0,666.89557,
1751399085.7116282,574.3179,64.07862,37.61521,392.79132,
1751399085.7155201,508.82318,122.05029,0.0,379.9579,
1751399085.7194121,540.0659,715.48553,918.34216,710.1752,
1751399085.7233040,600.33875,947.01825,1067.4755,857.5383,
1751399085.7271960,591.3996,493.42307,164.35634,673.445,
1751399085.7310879,521.12555,68.592445,61.246414,401.99597,
1751399085.7349799,452.7101,52.661297,0.0,339.776,
1751399085.7388718,468.9068,621.8458,806.2046,657.15985,
1751399085.7427638,541.65906,986.22656,988.4392,858.42334,
1751399085.7466557,558.4752,533.4279,0.0,716.0166,
1751399085.7505476,484.12988,82.04541,21.064518,437.0445,
1751399085.7544394,407.9259,43.279617,0.0,330.74832,
1751399085.7583313,422.52945,612.7297,864.70734,628.5723,
1751399085.7622232,490.41385,994.6347,1339.8096,874.3545,
1751399085.7661152,526.2589,637.4229,329.95178,781.51135,
1751399085.7700071,479.35056,189.13814,69.56602,531.1268,
1751399085.7738991,395.80054,87.798325,0.0,385.44528,
1751399085.7777910,403.32358,599.54224,591.57666,649.72534,
1751399085.7816830,497.31735,1114.0298,1407.0745,953.0367,
1751399085.7855749,542.89813,898.7823,1212.6259,896.3041,
1751399085.7894669,495.6357,364.29227,565.8213,644.946,
1751399085.7933588,445.80664,109.21687,0.0,483.1563,
1751399085.7972507,471.20795,637.6,523.0727,705.3958,
1751399085.8011427,562.104,1251.6572,1450.0,1024.9038,
1751399085.8050346,615.2963,1153.5922,1342.4647,994.36914,
1751399085.8089266,597.3295,536.7027,552.81085,749.56055,
1751399085.8128185,547.5005,196.13014,0.0,545.2878,
1751399085.8167105,544.4027,669.8163,412.88226,699.64294,
1751399085.8206024,618.5711,1283.5195,1325.383,1025.7004,
1751399085.8244944,668.6657,1074.9099,1277.4126,1024.2843,
1751399085.8283863,649.4598,508.82318,639.19305,771.15607,
1751399085.8322783,596.6215,197.28072,0.0,537.58777,
1751399085.8361702,572.7248,584.76166,485.10345,639.9896,
1751399085.8400621,653.79663,1242.6295,1297.946,996.1393,
1751399085.8439541,730.7087,1253.0734,1450.0,1064.3777,
1751399085.8478460,731.0627,749.295,958.5241,853.90955,
1751399085.8517380,673.268,359.86694,0.0,602.63995,
1751399085.8556297,655.4782,592.01917,243.48105,655.6553,
1751399085.8595216,744.2501,1229.9731,1258.2952,1030.5682,
1751399085.8634136,787.0872,1365.2109,1450.0,1094.9124,
1751399085.8673055,768.41235,883.5592,875.23956,849.83826,
1751399085.8711975,709.55566,294.28372,0.0,585.8237,
1751399085.8750894,666.0105,426.2467,66.37978,570.60065,
1751399085.8789814,732.6558,1135.9794,1108.8964,914.3594,
1751399085.8828733,810.1874,1264.4906,1256.0825,1059.7754,
1751399085.8867652,803.1954,768.7664,747.7019,849.83826,
1751399085.8906572,723.9822,249.58798,108.86285,557.6787,
1751399085.8945491,646.6276,298.79755,0.0,481.12067,
1751399085.8984411,652.3805,1022.24866,1019.9475,768.9434,
1751399085.9023330,716.9902,1288.2988,1450.0,946.2217,
1751399085.9062250,748.6755,877.1867,875.32806,818.41846,
1751399085.9101169,690.6153,393.8534,213.7429,561.48444,
1751399085.9140089,621.40326,440.1422,83.2845,469.79187,
1751399085.9179008,662.0277,1036.3212,831.95996,778.94464,
1751399085.9217927,732.21326,1381.2306,1450.0,1005.7865,
1751399085.9256847,743.6306,1129.1644,1355.5637,884.5328,
1751399085.9295766,711.23724,580.2478,429.8755,628.39526,
1751399085.9334686,644.946,371.54977,0.0,484.12988,
1751399085.9373605,659.1955,934.8044,748.3214,744.8697,
1751399085.9412525,750.35706,1395.9226,1450.0,1038.2683,
1751399085.9451444,776.909,1207.227,1330.7819,955.5149,
1751399085.9490364,724.60175,608.1273,455.89636,668.9312,
1751399085.9529283,653.08856,385.7108,0.0,485.01495,
1751399085.9568202,654.23914,915.864,584.4961,695.74866,
1751399085.9607120,740.09033,1372.4684,1450.0,996.58185,
1751399085.9646039,783.28143,1210.6787,1450.0,954.01025,
1751399085.9684958,748.1444,655.1242,565.6443,696.45667,
1751399085.9723878,689.6417,358.80487,0.0,508.0266,
1751399085.9762797,667.86914,807.00116,616.2699,663.3553,
1751399085.9801717,719.4683,1324.6749,1381.4961,959.6747,
1751399085.9840636,776.46643,1226.8754,1450.0,963.2149,
1751399085.9879556,741.949,672.737,723.9822,712.5649,
1751399085.9918475,659.63806,321.10114,0.0,474.4827,
1751399085.9957395,644.6805,620.2527,277.11346,588.0364,
1751399085.9996314,705.9269,1193.3315,1293.9633,919.31573,
1751399086.0035233,754.8709,1200.5005,1450.0,959.9402,
1751399086.0074153,742.65704,687.5176,701.1475,739.47076,
1751399086.0113072,683.3577,228.78899,0.0,498.55643,
1751399086.0151992,619.9872,430.31802,164.79887,522.0991,
1751399086.0190911,650.16785,1076.7686,1212.4489,841.7842,
1751399086.0229831,721.504,1178.7279,1091.1952,950.82404,
1751399086.0268750,733.2753,673.445,573.78687,764.42957,
1751399086.0307670,650.07935,207.19344,51.77623,489.7943,
1751399086.0346589,582.01794,345.08636,24.9588,479.26205,
1751399086.0385509,650.6104,1049.4202,1088.8054,843.02325,
1751399086.0424428,728.93854,1209.1742,1450.0,989.85535,
1751399086.0463347,745.66626,733.6294,901.703,812.4885,
1751399086.0502267,676.0117,256.22595,129.39633,535.10956,
1751399086.0541186,596.887,319.41953,103.90649,464.8355,
1751399086.0580106,636.8919,939.58374,954.8953,791.247,
1751399086.0619023,700.08545,1191.8269,1450.0,970.2954,
1751399086.0657942,709.55566,810.4529,982.3323,809.3908,
1751399086.0696862,655.5668,435.27438,186.48294,540.3314,
1751399086.0735781,572.8133,392.26028,0.0,421.11334,
1751399086.0774701,604.49854,801.1597,812.4,725.7523,
1751399086.0813620,714.15796,1095.886,1450.0,995.7853,
1751399086.0852540,730.2661,893.11786,940.8228,868.07056,
1751399086.0891459,658.0449,315.0827,153.73558,576.3535,
1751399086.0930378,574.67194,157.62987,0.0,425.18463,
1751399086.0969298,576.6191,754.5169,676.5428,677.60486,
1751399086.1008217,658.0449,1235.5491,1435.3965,951.5321,
1751399086.1047137,689.8187,956.66547,1081.1055,867.53955,
1751399086.1086056,646.09656,383.2326,332.51846,601.4008,
1751399086.1124976,579.8938,201.2635,0.0,434.74332,
1751399086.1163895,587.9479,757.43756,670.0818,662.6473,
1751399086.1202815,673.9761,1228.6455,1433.7148,968.61383,
1751399086.1241734,724.51324,1030.7452,1324.6749,931.61816,
1751399086.1280653,682.8267,535.02106,547.589,679.552,
1751399086.1319573,602.3744,279.59164,0.0,477.22638,
1751399086.1358492,588.2134,704.42224,453.77222,646.8046,
1751399086.1397412,662.3817,1285.4667,1395.5686,972.6851,
1751399086.1436331,726.5489,1226.7869,1450.0,988.6163,
1751399086.1475251,711.23724,737.3466,714.6005,764.07556,
1751399086.1514170,659.63806,385.26828,0.0,564.5822,
1751399086.1553090,654.8587,719.6454,723.1856,685.65894,
1751399086.1592009,735.2225,1313.2577,1387.6915,1036.1442,
1751399086.1630929,799.92065,1371.2294,1450.0,1084.2031,
1751399086.1669846,778.2366,829.9243,942.0619,847.9796,
1751399086.1708765,726.4603,405.0052,68.32693,619.5447,
1751399086.1747684,706.63495,723.4511,871.2568,690.43823,
1751399086.1786604,777.79407,1311.8416,1434.3344,1037.2948,
1751399086.1825523,861.16705,1372.3799,1450.0,1127.8368,
1751399086.1864443,875.7706,928.0779,1121.2874,926.48474,
1751399086.1903362,811.24945,492.89203,167.10004,662.2047,
1751399086.1942282,754.6054,680.5256,717.52124,645.0345,
1751399086.1981201,802.2218,1223.3352,1333.6141,965.07355,
1751399086.2020121,884.0017,1360.6085,1450.0,1086.7698,
1751399086.2059040,905.3317,880.9925,1185.9855,908.07544,
1751399086.2097960,860.54755,361.19452,103.994995,653.7081,
1751399086.2136879,802.2218,483.59885,199.93591,596.71,
1751399086.2175798,832.5795,1065.7053,1147.5737,896.74664,
1751399086.2214718,921.88245,1303.7875,1450.0,1075.441,
1751399086.2253637,946.75275,923.21,1081.725,937.5481,
1751399086.2292557,883.6477,363.3187,120.28017,660.78864,
1751399086.2331476,788.3263,308.88727,0.0,521.5681,
1751399086.2370396,800.9827,914.53644,875.85913,797.44244,
1751399086.2409315,890.37415,1276.8815,1450.0,1027.8246,
1751399086.2448235,920.5549,903.3846,1128.3678,902.9421,
1751399086.2487154,870.54877,327.3851,255.42941,629.28033,
1751399086.2526073,790.09644,200.46695,0.0,475.8103,
1751399086.2564993,781.95386,778.76764,906.3938,722.12354,
1751399086.2603912,869.6637,1165.275,1450.0,1000.2106,
1751399086.2642832,928.60895,884.3557,928.78595,936.7515,
1751399086.2681749,848.4221,344.90936,272.51114,643.7069,
1751399086.2720668,738.76276,150.19533,0.0,441.64682,
1751399086.2759588,731.77075,631.2275,531.92334,653.44257,
1751399086.2798507,796.02637,1122.8804,1386.6294,944.09753,
1751399086.2837427,826.6496,961.6218,1099.0723,892.2328,
1751399086.2876346,786.6447,452.79865,506.2565,633.5287,
1751399086.2915266,735.2225,153.47006,0.0,456.6044,
1751399086.2954185,740.17883,562.5466,367.567,650.8759,
1751399086.2993104,786.02515,1127.5713,1430.2631,949.67346,
1751399086.3032024,803.63794,1079.3353,1131.2886,919.49274,
1751399086.3070943,776.0239,512.71747,331.98743,677.95886,
1751399086.3109863,709.82117,154.26662,0.0,466.42862,
1751399086.3148782,691.4118,533.1624,283.48593,594.1433,
1751399086.3187702,745.57776,1245.2848,1300.6897,921.88245,
1751399086.3226621,794.1677,1091.9917,1113.6758,954.8068,
1751399086.3265541,796.20337,499.707,473.0666,741.772,
1751399086.3304460,728.496,196.83818,11.417323,498.73343,
1751399086.3343379,682.47266,477.5804,321.45517,556.97064,
1751399086.3382299,759.9158,1106.1527,1208.2891,921.70544,
1751399086.3421218,801.5138,1148.8127,1439.1138,989.50134,
1751399086.3460138,764.87213,670.52435,812.6656,751.2421,
1751399086.3499057,713.53845,278.8836,0.0,501.74265,
1751399086.3537977,685.3049,402.17297,66.82232,530.1532,
1751399086.3576896,729.5581,1026.2314,1111.4631,877.0097,
1751399086.3615816,782.30786,1213.5995,1450.0,986.22656,
1751399086.3654735,793.19415,812.9311,826.29553,803.54944,
1751399086.3693655,743.5421,298.6205,0.0,550.06714,
1751399086.3732572,675.8347,338.3599,3.6287615,496.16675,
1751399086.3771491,697.9613,1005.43243,1002.1577,815.8518,
1751399086.3810410,770.3595,1227.672,1396.3651,984.1024,
1751399086.3849330,789.29987,817.0909,970.561,820.4541,
1751399086.3888249,729.8236,326.67703,161.52414,552.1028,
1751399086.3927169,669.9048,324.11035,0.0,463.3309,
1751399086.3966088,693.89,977.9955,1002.6888,760.3583,
1751399086.4005008,769.2974,1258.3837,1450.0,978.70355,
1751399086.4043927,795.93787,881.61206,1129.9609,856.2107,
1751399086.4082847,734.3374,370.4877,322.78278,580.7789,
1751399086.4121766,658.4874,328.18164,1.9471403,443.68246,
1751399086.4160686,675.30365,864.2648,749.295,704.8648,
1751399086.4199605,753.54333,1225.4594,1450.0,950.20447,
1751399086.4238524,763.3675,981.3587,1233.6904,832.22546,
1751399086.4277444,682.5612,441.29282,476.78387,536.7027,
1751399086.4316363,581.66394,202.23708,0.0,346.945,
1751399086.4355283,569.9811,680.6141,564.7592,553.8729,
1751399086.4394202,643.08734,1152.0875,1450.0,840.01404,
1751399086.4433122,674.86115,990.9174,1078.6272,778.1481,
1751399086.4472041,629.19183,393.23383,288.17676,511.8324,
1751399086.4510961,555.289,96.648964,0.0,314.37466,
1751399086.4549880,554.935,577.50415,433.41574,501.56564,
1751399086.4588799,623.3504,1164.1244,1384.8593,819.6576,
1751399086.4627719,680.437,1011.09686,1223.6892,809.2138,
1751399086.4666638,661.8507,427.5743,444.30203,574.05237,
1751399086.4705558,579.6283,140.01709,0.0,358.71634,
1751399086.4744475,555.90857,550.5982,499.4415,486.8736,
1751399086.4783394,636.6264,1113.6758,1318.1255,833.5531,
1751399086.4822314,688.2256,1054.465,1423.9791,859.928,
1751399086.4861233,667.51514,551.5718,747.25934,637.777,
1751399086.4900153,610.87103,241.6224,0.0,419.52023,
1751399086.4939072,588.83295,498.55643,203.03363,505.1059,
1751399086.4977992,672.11743,1125.0931,1243.4261,870.63727,
1751399086.5016911,760.71234,1230.3271,1450.0,973.4816,
1751399086.5055830,757.8801,766.1112,783.19293,770.80206,
1751399086.5094750,711.9453,301.89526,0.0,536.7912,
1751399086.5133669,694.5096,485.10345,277.02496,587.6824,
1751399086.5172589,732.30176,1132.9701,1187.9326,912.5008,
1751399086.5211508,803.4609,1258.8262,1393.71,1025.6119,
1751399086.5250428,827.3576,834.9692,1048.004,853.90955,
1751399086.5289347,776.46643,398.45572,116.03186,603.6135,
1751399086.5328267,739.29376,526.3474,415.71445,594.6744,
1751399086.5367186,801.7793,1192.5349,1311.6646,956.0459,
1751399086.5406106,909.8456,1414.0664,1450.0,1151.468,
1751399086.5445025,926.39624,1048.712,1316.0013,994.6347,
1751399086.5483944,881.87756,568.47644,315.61374,742.48,
1751399086.5522864,846.3865,648.57477,713.0959,680.083,
1751399086.5561783,882.58563,1190.1453,1450.0,989.4128,
1751399086.5600703,980.2081,1407.871,1413.9779,1208.9971,
1751399086.5639622,1035.0822,1153.1497,1450.0,1096.8595,
1751399086.5678542,1000.1221,790.18494,586.6203,828.50824,
1751399086.5717461,928.0779,694.1555,603.6135,686.721,
1751399086.5756381,968.79083,1103.8516,1450.0,965.9586,
1751399086.5795298,1071.8123,1360.874,1437.5206,1214.4845,
1751399086.5834217,1102.6124,1163.4164,1450.0,1097.9216,
1751399086.5873137,1053.6685,586.00073,480.50113,810.89545,
1751399086.5912056,984.8105,360.8405,80.5408,634.1482,
1751399086.5950975,998.0864,904.26965,1018.79694,861.07855,
1751399086.5989895,1070.3076,1315.4703,1450.0,1108.9849,
1751399086.6028814,1103.586,1099.6033,1450.0,1036.7637,
1751399086.6067734,1068.5375,524.40027,584.85016,763.3675,
1751399086.6106653,983.21735,192.50137,0.0,512.2749,
1751399086.6145573,945.0711,718.40625,579.1857,689.9072,
1751399086.6184492,1019.23944,1285.6437,1425.9263,1046.8534,
1751399086.6223412,1087.3894,1111.1091,1450.0,1059.0674,
1751399086.6262331,1043.5787,502.2737,592.19617,746.72833,
1751399086.6301250,941.1768,161.0816,0.0,465.0125,
1751399086.6340170,904.35815,587.3283,355.70712,621.04926,
1751399086.6379089,960.3827,1254.1354,1348.5717,1004.9899,
1751399086.6418009,1025.1694,1237.3192,1450.0,1063.4042,
1751399086.6456928,1016.7613,658.0449,720.1764,800.09766,
1751399086.6495848,948.9654,171.61386,0.0,524.66583,
1751399086.6534767,904.18115,518.6474,279.2376,621.7573,
1751399086.6573687,951.7976,1257.9412,1267.2344,1024.0188,
1751399086.6612606,1038.7108,1394.949,1450.0,1148.5472,
1751399086.6651525,1059.2444,826.6496,946.66425,916.1295,
1751399086.6690445,984.0139,288.5308,0.0,610.78253,
1751399086.6729364,933.9193,599.0997,366.94745,650.25635,
1751399086.6768284,993.92664,1287.1483,1311.399,1056.4121,
1751399086.6807201,1093.4963,1435.662,1450.0,1212.9799,
1751399086.6846120,1117.7471,990.47485,1108.5424,993.83813,
1751399086.6885040,1052.0753,423.0605,136.65385,673.8876,
1751399086.6923959,997.5554,571.5742,534.4015,626.9792,
1751399086.6962879,1053.757,1194.5706,1259.5343,1003.57385,
1751399086.7001798,1145.0071,1411.6768,1450.0,1204.9258,
1751399086.7040718,1155.1853,999.1485,1215.5466,995.3427,
1751399086.7079637,1103.7631,390.84418,149.13326,655.2127,
1751399086.7118556,1050.3937,323.93335,0.0,553.07635,
1751399086.7157476,1076.503,993.39557,940.7343,894.26843,
1751399086.7196395,1150.4944,1375.3007,1450.0,1125.2701,
1751399086.7235315,1157.752,973.1276,1068.095,952.6827,
1751399086.7274234,1078.5387,285.43307,146.30104,598.83417,
1751399086.7313154,992.068,105.234085,0.0,431.4686,
1751399086.7352073,990.7404,748.0559,750.6226,727.69946,
1751399086.7390993,1051.6328,1239.9744,1450.0,1001.9807,
1751399086.7429912,1078.4502,839.21747,869.39813,890.9052,
1751399086.7468832,1024.7268,204.0957,179.84496,567.94543,
1751399086.7507751,917.98816,6.9034977,0.0,341.01508,
1751399086.7546670,880.4614,549.89014,507.58408,573.4328,
1751399086.7585590,941.7964,1036.8522,1341.7567,902.9421,
1751399086.7624509,973.0391,703.62573,394.73843,832.40247,
1751399086.7663429,906.3053,192.23586,0.0,506.16797,
1751399086.7702348,782.7504,0.0,0.0,250.91559,
1751399086.7741268,738.1432,310.9229,298.4435,453.41818,
1751399086.7780187,786.46765,930.2905,1315.2048,815.5863,
1751399086.7819104,832.49097,777.70557,492.80353,809.3023,
1751399086.7858024,807.26666,278.9721,0.0,538.91534,
1751399086.7896943,683.8888,0.0,0.0,256.84552,
1751399086.7935863,618.7481,265.69614,162.2322,399.6063,
1751399086.7974782,688.0486,951.5321,1354.0591,807.00116,
1751399086.8013701,744.8697,964.277,862.6717,856.2107,
1751399086.8052621,714.42346,370.75323,0.0,586.5318,
1751399086.8091540,624.50104,0.0,0.0,306.3206,
1751399086.8130460,565.6443,247.55234,122.40432,397.74765,
1751399086.8169379,626.5367,1117.9241,1241.9215,793.10565,
1751399086.8208299,705.0418,1169.7003,1194.9246,907.54443,
1751399086.8247218,698.6694,381.551,213.7429,677.3393,
1751399086.8286138,604.23303,17.701275,0.0,368.71756,
1751399086.8325057,535.5521,282.7779,132.58255,386.59586,
1751399086.8363976,574.4949,931.52966,1084.2031,771.24457,
1751399086.8402896,651.3184,1095.0895,1410.5261,933.6538,
1751399086.8441815,665.568,581.2214,616.88947,725.5753,
1751399086.8480735,592.63873,87.70982,0.0,404.8282,
1751399086.8519654,533.782,178.78288,3.8057742,382.8786,
1751399086.8558574,576.3535,877.8063,984.722,770.094,
1751399086.8597493,654.32764,1184.8348,1450.0,964.454,
1751399086.8636413,647.8667,743.09955,772.48364,762.8365,
1751399086.8675332,571.13165,130.72392,13.18745,435.98242,
1751399086.8714252,502.80475,114.173225,0.0,344.46683,
1751399086.8753171,544.7568,857.09576,864.1763,710.79474,
1751399086.8792090,634.67926,1241.479,1450.0,978.438,
1751399086.8831010,661.7622,822.7553,1074.2019,834.4381,
1751399086.8869927,611.49054,223.56711,127.44919,517.7623,
1751399086.8908846,530.94977,168.78166,0.0,382.70157,
1751399086.8947766,557.9442,922.679,974.80927,721.76953,
1751399086.8986685,663.79785,1364.9453,1450.0,1038.7993,
1751399086.9025605,703.89124,1015.16815,1282.4574,938.52167,
1751399086.9064524,646.8931,407.8374,320.92413,612.0216,
1751399086.9103444,565.5558,266.3157,0.0,421.64438,
1751399086.9142363,577.4156,861.7866,672.47144,703.80273,
1751399086.9181283,670.2588,1352.82,1450.0,1021.2751,
1751399086.9220202,734.1604,1128.1023,1439.1138,965.7816,
1751399086.9259121,712.2108,486.60806,558.9178,670.96686,
1751399086.9298041,643.35284,151.78844,0.0,432.7962,
1751399086.9336960,611.04803,675.21515,507.49557,632.5551,
1751399086.9375880,675.21515,1278.2976,1450.0,980.1196,
1751399086.9414799,741.1524,1158.7255,1301.2208,966.2241,
1751399086.9453719,717.87524,481.6517,446.51468,663.79785,
1751399086.9492638,641.75977,101.2513,0.0,408.89948,
1751399086.9531558,609.1894,583.8766,365.44284,570.0696,
1751399086.9570477,685.74744,1262.455,1366.627,954.7183,
1751399086.9609396,759.4732,1184.3923,1450.0,999.237,
1751399086.9648316,721.14996,530.4187,624.0585,699.1119,
1751399086.9687235,631.139,109.83642,0.0,406.4213,
1751399086.9726155,617.06647,499.707,405.71323,522.0106,
1751399086.9765074,685.65894,1161.0267,1276.085,912.3237,
1751399086.9803994,719.4683,1175.0992,1450.0,974.1897,
1751399086.9842913,711.8568,579.8938,772.04114,714.06946,
1751399086.9881830,646.9816,107.26973,0.0,418.19263,
1751399086.9920750,584.2306,335.08514,127.6262,455.0113,
1751399086.9959669,630.2539,1043.8442,1172.8865,838.59796,
1751399086.9998589,713.1844,1215.1926,1450.0,976.7564,
1751399087.0037508,703.71423,671.6749,651.0529,737.3466,
1751399087.0076427,617.77454,77.7086,0.0,410.93512,
1751399087.0115347,552.72235,161.87817,32.481842,378.8073,
1751399087.0154266,573.2558,896.1271,1031.3649,743.18805,
1751399087.0193186,644.946,1175.8073,1190.9418,927.2813,
1751399087.0232105,668.7542,708.405,590.3375,754.6054,
1751399087.0271025,602.63995,165.41843,61.246414,464.03894,
1751399087.0309944,530.94977,244.63164,3.0977232,399.78333,
1751399087.0348864,572.9903,1044.1982,1013.8406,787.0872,
1751399087.0387783,665.3024,1382.4696,1450.0,1038.9763,
1751399087.0426702,690.9693,959.9402,1182.7107,892.94086,
1751399087.0465622,649.99084,371.54977,243.48105,596.09045,
1751399087.0504541,572.8133,332.8725,81.95691,459.17108,
1751399087.0543461,582.01794,978.438,880.2844,774.78485,
1751399087.0582380,693.536,1391.4088,1450.0,1069.3341,
1751399087.0621300,739.11676,1079.7778,1351.3154,950.82404,
1751399087.0660219,665.745,557.9442,395.00397,615.8274,
1751399087.0699139,593.5238,366.15088,0.0,440.58475,
1751399087.0738058,616.80096,884.5328,731.50525,730.2661,
1751399087.0776978,713.71545,1272.7217,1450.0,1054.0225,
1751399087.0815897,778.3251,1054.465,1287.5023,993.66113,
1751399087.0854816,736.9041,449.4354,341.6346,679.729,
1751399087.0893736,640.7862,190.81975,0.0,448.63882,
1751399087.0932653,633.3516,776.46643,592.37317,685.74744,
1751399087.0971572,719.4683,1342.0222,1450.0,1041.1891,
1751399087.1010492,774.4308,1149.6094,1450.0,1005.16693,
1751399087.1049411,743.45355,500.06104,532.9854,698.4038,
1751399087.1088331,654.5932,174.97711,0.0,438.81464,
1751399087.1127250,639.8126,700.43945,588.0364,620.2527,
1751399087.1166170,736.46155,1299.8932,1401.3215,1007.82214,
1751399087.1205089,786.8217,1182.7992,1450.0,1018.70844,
1751399087.1244009,757.9686,584.2306,690.43823,731.59375,
1751399087.1282928,700.26245,172.41043,0.0,467.4907,
1751399087.1321847,678.04736,526.2589,320.4816,597.7721,
1751399087.1360767,736.9041,1235.2836,1332.906,985.60706,
1751399087.1399686,786.20215,1272.8102,1450.0,1036.8522,
1751399087.1438606,771.77563,701.9441,723.5397,769.1204,
1751399087.1477525,706.4579,190.64275,0.0,484.04138,
1751399087.1516445,678.04736,449.2584,225.24873,552.2798,
1751399087.1555364,736.8156,1200.1465,1215.7236,944.7171,
1751399087.1594284,804.523,1359.7235,1450.0,1062.873,
1751399087.1633203,813.3736,760.3583,909.6686,832.04846,
1751399087.1672122,734.1604,169.2242,0.0,508.2036,
1751399087.1711042,661.14264,354.55655,87.88683,483.95288,
1751399087.1749961,705.3958,1116.5079,1121.9954,863.55676,
1751399087.1788881,798.5046,1315.7358,1450.0,1044.6407,
1751399087.1827800,811.869,812.9311,1018.97394,840.9876,
1751399087.1866720,733.7179,236.84306,77.00055,515.6382,
1751399087.1905639,686.36694,317.56088,108.951355,463.95044,
1751399087.1944556,739.47076,1016.2302,979.23456,835.85425,
1751399087.1983476,814.70123,1332.2865,1450.0,1052.1638,
1751399087.2022395,821.1622,838.77496,1137.9265,875.94763,
1751399087.2061315,749.91455,221.61996,115.85485,545.64185,
1751399087.2100234,677.69336,231.00165,0.0,422.0869,
1751399087.2139153,705.2188,904.7122,869.9292,769.74,
1751399087.2178073,770.3595,1339.6326,1450.0,1029.2407,
1751399087.2216992,784.8746,991.714,1087.3009,884.0017,
1751399087.2255912,739.29376,317.29538,171.34834,566.2638,
1751399087.2294831,674.1531,154.70915,0.0,406.77533,
1751399087.2333751,702.74066,816.5599,703.71423,720.53046,
1751399087.2372670,779.6527,1326.6221,1450.0,1028.0901,
1751399087.2411590,806.1161,998.529,1330.7819,929.49396,
1751399087.2450509,757.34906,312.25052,328.71268,605.4721,
1751399087.2489429,662.8243,67.61887,0.0,386.68436,
1751399087.2528348,654.5047,706.2809,641.3172,639.28156,
1751399087.2567267,727.3454,1248.471,1450.0,972.5966,
1751399087.2606187,769.6515,1026.32,1409.3756,925.77673,
1751399087.2645106,743.7191,412.0857,455.98486,628.8378,
1751399087.2684026,668.8427,87.53281,0.0,385.00275,
1751399087.2722945,643.08734,552.1913,429.07892,575.6455,
1751399087.2761865,712.4763,1182.2682,1377.5133,948.5229,
1751399087.2800784,776.9975,1086.2388,1450.0,962.15283,
1751399087.2839704,738.58575,474.21716,647.7782,657.6024,
1751399087.2878623,645.2115,22.569126,0.0,369.69113,
1751399087.2917542,607.9503,382.7901,274.98932,499.53,
1751399087.2956462,664.7714,1099.9573,1345.297,885.77185,
1751399087.2995379,726.1948,1122.1724,1169.1693,943.21246,
1751399087.3034298,703.53723,487.49313,372.78888,677.95886,
1751399087.3073218,611.31354,15.046084,0.0,368.71756,
1751399087.3112137,566.97186,297.55844,125.14802,432.53067,
1751399087.3151057,614.6768,1176.5153,1245.5503,829.30475,
1751399087.3189976,682.8267,1186.1625,1285.8207,946.4872,
1751399087.3228896,688.0486,428.19385,334.11157,718.6718,
1751399087.3267815,598.2146,57.706158,0.0,406.3328,
1751399087.3306735,524.57733,313.6666,125.502045,403.50058,
1751399087.3345654,575.8225,1029.6832,1060.1294,792.66315,
1751399087.3384573,645.56555,1228.8225,1450.0,952.5057,
1751399087.3423493,643.7069,723.6282,784.255,740.26733,
1751399087.3462412,581.66394,188.60709,7.523042,440.40775,
1751399087.3501332,519.1784,248.52591,0.0,396.9511,
1751399087.3540251,561.13043,967.64026,964.89655,768.6779,
1751399087.3579171,662.7358,1296.6184,1450.0,999.1485,
1751399087.3618090,683.8003,871.1683,888.427,824.2599,
1751399087.3657010,602.4629,211.97278,32.393333,482.27127,
1751399087.3695929,518.47034,136.1228,0.0,357.9198,
1751399087.3734848,530.59576,838.50946,851.5199,691.4118,
1751399087.3773768,601.5779,1213.0685,1438.1401,940.29175,
1751399087.3812687,630.4309,784.3435,730.4431,797.08844,
1751399087.3851607,569.9811,175.95068,86.205215,468.37576,
1751399087.3890526,490.9449,43.810658,0.0,305.16998,
1751399087.3929446,508.1151,718.05225,815.9403,619.9872,
1751399087.3968365,575.9995,1174.9221,1450.0,917.54565,
1751399087.4007282,594.6744,820.54266,810.0989,811.16095,
1751399087.4046202,536.0831,235.42697,155.94824,498.1139,
1751399087.4085121,447.22272,69.831535,0.0,301.0987,
1751399087.4124041,439.9652,629.8114,550.8637,572.1937,
1751399087.4162960,524.04626,1182.7107,1446.3712,924.3606,
1751399087.4201880,583.08,990.6519,1277.2356,876.9212,
1751399087.4240799,553.43036,379.0728,482.8908,581.1329,
1751399087.4279718,466.95966,36.19911,0.0,341.90015,
1751399087.4318638,449.5239,560.7764,440.85028,549.89014,
1751399087.4357557,541.92456,1233.5134,1448.4069,942.50446,
1751399087.4396477,601.0468,1141.0243,1245.3733,941.0883,
1751399087.4435396,557.5017,444.39053,392.5258,632.5551,
1751399087.4474316,469.88037,29.649637,0.0,364.02673,
1751399087.4513235,443.06293,517.6738,340.13,517.14276,
1751399087.4552155,505.63693,1260.5078,1344.4119,898.6053,
1751399087.4591074,574.84894,1202.5361,1450.0,959.2321,
1751399087.4629993,563.69714,551.1292,661.8507,700.17395,
1751399087.4668913,493.7771,128.9538,0.0,415.0949,
1751399087.4707832,463.15387,513.86804,421.73288,511.21283,
1751399087.4746752,535.37506,1220.3259,1274.4918,920.8204,
1751399087.4785671,621.31476,1295.4679,1450.0,1033.2235,
1751399087.4824591,608.3928,745.2237,897.18915,780.0067,
1751399087.4863510,531.56934,278.35257,0.0,473.1551,
1751399087.4902430,495.7242,496.34378,161.52414,513.77954,
1751399087.4941349,563.1661,1193.951,1196.4292,922.9445,
1751399087.4980268,656.0978,1416.456,1450.0,1084.4686,
1751399087.5019188,677.1623,950.3815,952.8597,874.3545,
1751399087.5058105,628.8378,306.5861,0.0,576.6191,
1751399087.5097024,568.29944,438.81464,112.04907,539.9774,
1751399087.5135944,607.24225,1175.8958,1126.6862,911.43866,
1751399087.5174863,703.00616,1349.6338,1450.0,1124.739,
1751399087.5213783,737.8777,961.09076,1193.066,949.3194,
1751399087.5252702,698.3153,393.41086,116.29738,631.75854,
1751399087.5291622,640.8747,427.4858,56.821095,541.74756,
1751399087.5330541,653.6196,1155.9818,1116.2424,889.3121,
1751399087.5369461,755.0479,1444.2471,1450.0,1147.3967,
1751399087.5408380,807.44366,1047.2075,1248.3824,1005.9635,
1751399087.5447299,743.7191,405.44772,324.5529,665.6565,
1751399087.5486219,676.6313,355.61862,97.888054,509.35422,
1751399087.5525138,702.2096,998.0864,894.888,825.676,
1751399087.5564058,788.1493,1404.8617,1450.0,1111.1091,
1751399087.5602977,825.23346,1122.9689,1414.0664,998.7945,
1751399087.5641897,789.21136,599.98474,512.983,680.7911,
1751399087.5680816,719.9109,365.70834,0.0,486.25406,
1751399087.5719736,715.13153,861.5211,725.48676,755.933,
1751399087.5758655,802.57587,1277.5011,1450.0,1090.487,
1751399087.5797575,836.38525,1093.3193,1347.6866,1013.398,
1751399087.5836494,800.9827,453.86072,439.25717,696.19116,
1751399087.5875413,743.36505,127.18366,0.0,474.5712,
1751399087.5914333,721.504,697.07623,556.88214,687.1635,
1751399087.5953252,804.43445,1313.6117,1450.0,1057.3857,
1751399087.5992172,874.62006,1159.6991,1450.0,1048.6235,
1751399087.6031091,843.46576,500.32657,540.8625,740.7099,
1751399087.6070008,753.1893,130.98944,0.0,469.52634,
1751399087.6108928,718.14075,625.7401,555.82007,626.6252,
1751399087.6147847,780.0067,1266.2607,1380.5225,1000.3876,
1751399087.6186767,835.3232,1169.2578,1450.0,1021.98315,
1751399087.6225686,813.72766,545.1993,679.6405,736.9041,
1751399087.6264606,750.00305,143.29182,0.0,460.3217,
1751399087.6303525,722.12354,481.82874,269.94446,567.41437,
1751399087.6342444,770.89056,1160.4071,1296.6184,948.8769,
1751399087.6381364,833.6416,1222.3616,1450.0,1027.2051,
1751399087.6420283,818.41846,667.51514,697.9613,765.7572,
1751399087.6459203,731.77075,98.24208,0.0,456.16187,
1751399087.6498122,680.8796,306.4976,178.34035,490.9449,
1751399087.6537042,726.9029,1082.8755,1179.436,880.4614,
1751399087.6575961,796.2919,1267.4114,1354.4131,1014.0176,
1751399087.6614881,796.73444,669.1082,753.3663,776.8205,
1751399087.6653800,713.71545,90.71904,0.0,450.58597,
1751399087.6692719,637.2459,255.07538,47.88195,424.6536,
1751399087.6731639,670.78986,1019.682,1074.8214,804.523,
1751399087.6770558,760.80084,1236.4341,1450.0,998.4404,
1751399087.6809478,794.4332,716.1936,955.6919,816.3828,
1751399087.6848397,715.22003,127.53769,68.23842,480.85516,
1751399087.6887317,624.94354,194.80254,44.25319,385.26828,
1751399087.6926236,646.5391,894.9765,912.7663,740.9754,
1751399087.6965156,706.1039,1206.7844,1450.0,968.5253,
1751399087.7004075,733.6294,764.6951,982.2438,808.24023,
1751399087.7042994,682.8267,183.11969,110.190445,483.77588,
1751399087.7081914,606.62274,111.96057,0.0,361.54855,
1751399087.7120831,622.1998,815.32074,783.19293,699.90845,
1751399087.7159750,696.10266,1286.8827,1450.0,975.16327,
1751399087.7198670,718.31775,916.7491,886.30286,852.759,
1751399087.7237589,667.1611,241.17989,89.56846,540.8625,
1751399087.7276509,593.16974,60.007324,0.0,366.23938,
1751399087.7315428,576.5306,714.7775,639.37006,644.6805,
1751399087.7354348,640.4321,1294.6713,1450.0,962.5069,
1751399087.7393267,692.91644,995.1657,1263.2516,892.94086,
1751399087.7432187,664.8599,301.0102,311.985,582.28345,
1751399087.7471106,592.99274,60.095833,0.0,374.02795,
1751399087.7510026,579.45123,682.7382,568.12244,619.9872,
1751399087.7548945,648.0437,1247.1434,1443.8046,966.8437,
1751399087.7587864,696.8107,1029.6832,1371.3179,929.40546,
1751399087.7626784,652.0265,387.83496,438.7261,611.9331,
1751399087.7665703,561.48444,40.80144,0.0,351.90137,
1751399087.7704623,546.43835,525.46234,407.04083,548.82806,
1751399087.7743542,619.3676,1197.5798,1372.2029,929.9365,
1751399087.7782462,676.4542,1105.7102,1450.0,941.7079,
1751399087.7821381,654.41614,487.75867,630.3424,658.93,
1751399087.7860301,581.92944,26.640419,0.0,389.51657,
1751399087.7899220,536.26013,382.34756,279.76868,500.7691,
1751399087.7938139,600.6928,1148.9012,1319.8956,898.0742,
1751399087.7977059,661.23114,1209.1742,1252.4537,962.9494,
1751399087.8015978,645.65405,549.4476,498.82196,690.6153,
1751399087.8054898,573.69836,44.78423,0.0,392.3488,
1751399087.8093817,503.3358,349.6002,151.2574,435.89392,
1751399087.8132734,550.24414,1229.8846,1219.1754,834.3496,
1751399087.8171654,645.123,1312.5496,1450.0,978.52655,
1751399087.8210573,664.32886,525.37384,657.33685,761.5974,
1751399087.8249493,578.03516,57.794666,0.0,442.2664,
1751399087.8288412,495.01617,314.55167,167.10004,417.3076,
1751399087.8327332,542.5441,1034.9935,1065.7938,810.2759,
1751399087.8366251,633.7942,1262.3665,1450.0,995.5198,
1751399087.8405170,647.7782,763.54456,988.5278,790.893,
1751399087.8444090,571.30865,224.45218,6.4609656,468.11023,
1751399087.8483009,505.45993,281.80432,6.4609656,420.4938,
1751399087.8521929,554.3154,1021.3636,991.714,804.34595,
1751399087.8560848,635.56433,1385.9214,1450.0,1033.666,
1751399087.8599768,658.576,967.1977,1091.9032,869.9292,
1751399087.8638687,608.4813,290.30093,90.188,541.128,
1751399087.8677607,534.313,267.9973,0.0,427.6628,
1751399087.8716526,572.0167,1014.4601,897.01215,795.76086,
1751399087.8755445,663.1783,1341.9337,1450.0,1072.6973,
1751399087.8794365,685.92444,1008.35315,1298.123,934.2733,
1751399087.8833284,649.99084,419.96277,230.2936,622.6424,
1751399087.8872204,595.2054,300.65616,0.0,478.99652,
1751399087.8911123,604.14453,987.8197,1022.9567,789.21136,
1751399087.8950043,689.46466,1436.901,1450.0,1102.0814,
1751399087.8988962,743.7191,1175.7188,1362.4672,1009.4152,
1751399087.9027882,709.82117,520.77155,433.0617,680.9681,
1751399087.9066801,649.54834,332.42996,0.0,486.69656,
1751399087.9105721,650.34485,901.17194,707.07745,747.7019,
1751399087.9144640,738.58575,1396.3651,1450.0,1100.1343,
1751399087.9183557,806.73566,1262.7205,1450.0,1062.7845,
1751399087.9222476,784.6976,629.7229,669.6393,749.64905,
1751399087.9261396,725.7523,270.387,0.0,510.77032,
1751399087.9300315,690.0842,777.263,572.9018,691.58887,
1751399087.9339235,754.6054,1379.726,1450.0,1050.2167,
1751399087.9378154,838.95197,1351.1384,1450.0,1073.2284,
1751399087.9417074,821.78174,658.2219,673.7106,782.30786,
1751399087.9455993,749.64905,202.06006,0.0,502.89325,
1751399087.9494913,729.29254,659.107,416.59952,653.08856,
1751399087.9533832,792.3091,1322.8163,1376.2742,1042.8706,
1751399087.9572752,866.3004,1302.9908,1450.0,1095.4435,
1751399087.9611671,852.4934,643.08734,757.17206,807.97473,
1751399087.9650590,771.4216,162.76323,0.0,496.96332,
1751399087.9689510,730.8857,550.24414,476.25284,582.903,
1751399087.9728429,792.57465,1255.463,1293.1667,988.9703,
1751399087.9767349,874.70856,1330.1624,1450.0,1090.9296,
1751399087.9806268,871.0798,755.579,921.4399,838.68646,
1751399087.9845188,781.86536,236.57755,0.0,515.1071,
1751399087.9884107,724.3362,404.29715,133.91016,519.4439,
1751399087.9923027,793.5482,1126.0667,1177.3119,926.13074,
1751399087.9961946,876.12463,1346.2705,1450.0,1090.7526,
1751399088.0000865,864.3533,842.58075,885.3293,855.4141,
1751399088.0039785,792.92865,210.37967,0.0,523.86926,
1751399088.0078704,732.7443,310.65738,57.706158,485.723,
1751399088.0117624,778.76764,1087.3894,1041.4546,879.39935,
1751399088.0156543,873.8235,1311.753,1450.0,1092.3457,
1751399088.0195460,883.7362,835.50024,1106.8607,901.17194,
1751399088.0234380,800.9827,227.37288,82.576454,556.52814,
1751399088.0273299,719.5569,230.38211,0.0,443.948,
1751399088.0312219,740.00183,1031.2764,1033.666,803.3724,
1751399088.0351138,829.8358,1385.3019,1450.0,1069.6881,
1751399088.0390058,861.25555,944.18604,1193.42,923.2985,
1751399088.0428977,804.43445,317.73788,244.54312,592.19617,
1751399088.0467896,736.10754,239.49826,0.0,443.8595,
1751399088.0506816,749.91455,905.6858,802.0448,766.4652,
1751399088.0545735,825.41046,1361.4937,1450.0,1066.3248,
1751399088.0584655,854.44055,1033.666,1363.8833,946.2217,
1751399088.0623574,790.27344,488.5552,421.55588,608.1273,
1751399088.0662494,714.689,279.68015,0.0,415.1834,
1751399088.0701413,723.0086,825.23346,673.53357,694.9521,
1751399088.0740333,810.0104,1264.2251,1450.0,1041.1891,
1751399088.0779252,859.3084,1068.449,1288.4758,986.93463,
1751399088.0818172,819.8346,410.93512,389.69357,671.49786,
1751399088.0857091,740.26733,81.77989,0.0,437.2215,
1751399088.0896010,712.5649,673.445,524.75433,639.5471,
1751399088.0934930,777.88257,1296.1759,1450.0,995.6083,
1751399088.0973849,843.02325,1138.6345,1450.0,990.5634,
1751399088.1012769,823.1978,486.7851,527.321,698.4038,
1751399088.1051688,728.58453,103.46396,0.0,418.36966,
1751399088.1090608,687.252,594.3203,536.7027,569.096,
1751399088.1129527,769.8285,1265.9952,1367.8661,974.4552,
1751399088.1168447,841.9612,1206.4304,1450.0,1024.1073,
1751399088.1207366,824.61395,589.895,698.4038,739.20526,
1751399088.1246283,740.00183,126.2101,0.0,437.2215,
1751399088.1285203,698.3153,453.6837,266.5812,539.9774,
1751399088.1324122,757.9686,1197.9338,1295.3794,944.45154,
1751399088.1363041,831.87146,1275.8195,1450.0,1038.1798,
1751399088.1401961,813.0196,689.9072,703.00616,766.5538,
1751399088.1440880,729.02704,116.474396,0.0,441.11578,
1751399088.1479800,687.9601,357.8313,187.54501,492.80353,
1751399088.1518719,738.58575,1140.9357,1177.7544,903.73865,
1751399088.1557639,804.25745,1323.1704,1450.0,1036.2327,
1751399088.1596558,814.87823,723.9822,861.6096,806.82416,
1751399088.1635478,736.37305,116.29738,0.0,480.32413,
1751399088.1674397,666.89557,302.86884,61.0694,453.94922,
1751399088.1713316,713.1844,1095.532,1088.3629,845.50146,
1751399088.1752236,794.5218,1324.8519,1450.0,1033.9315,
1751399088.1791155,821.1622,821.1622,1031.3649,852.3164,
1751399088.1830075,770.71356,226.75334,95.58689,539.8004,
1751399088.1868994,682.38416,269.41342,87.88683,441.55832,
1751399088.1907914,696.10266,964.54254,940.7343,799.65515,
1751399088.1946833,776.9975,1332.552,1450.0,1037.2948,
1751399088.1985753,795.67236,869.5752,1156.5128,869.39813,
1751399088.2024672,743.9846,203.9187,134.6182,545.0223,
1751399088.2063591,685.3049,229.0545,0.0,427.04327,
1751399088.2102511,700.17395,939.76074,843.7313,770.271,
1751399088.2141430,786.6447,1389.8157,1450.0,1055.9696,
1751399088.2180350,814.34717,1044.9062,1095.886,923.2985,
1751399088.2219269,766.9078,329.95178,196.9267,597.241,
1751399088.2258186,697.8728,142.31825,0.0,420.93634,
1751399088.2297106,697.07623,804.7885,700.17395,712.3878,
1751399088.2336025,787.7068,1352.643,1450.0,1050.6592,
1751399088.2374945,840.5451,1069.1571,1380.5225,979.14606,
1751399088.2413864,781.77686,379.51535,369.77966,642.02527,
1751399088.2452784,692.56244,165.68394,0.0,432.26517,
1751399088.2491703,689.11066,773.1032,702.82916,670.0818,
1751399088.2530622,759.8273,1273.6953,1450.0,985.96106,
1751399088.2569542,812.8426,1080.9283,1435.5735,957.90454,
1751399088.2608461,777.1745,503.07025,558.8293,687.252,
1751399088.2647381,724.4247,199.05084,0.0,470.05737,
1751399088.2686300,721.14996,633.7942,430.0525,647.5127,
1751399088.2725220,759.2077,1215.4581,1394.6835,969.5874,
1751399088.2764139,807.26666,1141.6438,1450.0,967.0207,
1751399088.2803059,785.84814,600.8698,671.49786,709.2016,
1751399088.2841978,712.0338,162.76323,0.0,449.5239,
1751399088.2880898,692.65094,501.91968,307.29416,565.7328,
1751399088.2919817,755.756,1200.766,1304.8495,943.5665,
1751399088.2958736,819.5691,1248.0284,1357.7764,1010.1233,
1751399088.2997656,809.7449,618.12854,685.74744,760.4468,
1751399088.3036575,745.4007,136.47684,0.0,487.58163,
1751399088.3075495,697.6073,416.06848,160.81609,537.8533,
1751399088.3114414,719.7339,1235.5491,1227.9375,885.59485,
1751399088.3153334,781.0688,1272.7217,1450.0,997.5554,
1751399088.3192253,791.9551,552.2798,766.1997,780.6263,
1751399088.3231173,730.6202,136.38834,8.231093,475.54477,
1751399088.3270092,673.53357,374.2935,188.16457,476.1643,
1751399088.3309009,721.41547,1045.0834,1074.1134,858.15784,
1751399088.3347929,799.3896,1255.463,1450.0,1022.7797,
1751399088.3386848,801.6023,773.4572,1020.3015,826.8266,
1751399088.3425767,735.57654,230.38211,26.197887,514.9301,
1751399088.3464687,673.091,274.28128,0.0,451.2055,
1751399088.3503606,694.7751,960.82526,974.2782,806.91266,
1751399088.3542526,770.3595,1293.7863,1450.0,1020.1245,
1751399088.3581445,790.716,890.02014,1049.9512,854.26355,
1751399088.3620365,728.67303,235.42697,79.21321,537.6763,
1751399088.3659284,664.5059,188.34157,0.0,428.10535,
1751399088.3698204,687.3405,905.0662,851.5199,767.70435,
1751399088.3737123,786.46765,1278.5631,1450.0,1049.1547,
1751399088.3776042,826.9151,928.52045,1256.0825,924.0951,
1751399088.3814962,749.56055,301.27573,199.6704,578.47766,
1751399088.3853881,661.7622,151.2574,0.0,402.17297,
1751399088.3892801,672.8255,852.2279,923.21,705.5729,
1751399088.3931720,754.6054,1309.3634,1450.0,1013.7521,
1751399088.3970640,799.3011,996.67035,1330.6934,926.21924,
1751399088.4009559,758.41113,374.382,365.61984,616.88947,
1751399088.4048479,679.37494,173.561,0.0,413.76733,
1751399088.4087398,683.0037,736.01904,605.8262,671.9404,
1751399088.4126318,760.0928,1274.4918,1450.0,1005.875,
1751399088.4165237,799.3896,1094.3813,1450.0,954.9838,
1751399088.4204156,755.933,455.0998,645.3885,649.90234,
1751399088.4243076,681.67615,105.14558,0.0,418.19263,
1751399088.4281995,672.6485,628.39526,466.51712,626.0941,
1751399088.4320912,748.6755,1292.1931,1434.5999,991.8025,
1751399088.4359832,796.2919,1213.9535,1380.965,989.58984,
1751399088.4398751,759.0307,521.39105,551.8373,689.28766,
1751399088.4437671,697.07623,106.29616,0.0,432.44217,
1751399088.4476590,687.6946,563.4316,342.6082,593.8778,
1751399088.4515510,742.3915,1269.1815,1342.5532,963.746,
1751399088.4554429,789.47687,1207.4926,1450.0,1005.698,
1751399088.4593349,779.21014,570.4236,708.1395,742.126,
1751399088.4632268,703.97974,149.48727,0.0,450.49747,
1751399088.4671187,652.64606,486.69656,393.67636,521.12555,
1751399088.4710107,714.42346,1171.205,1246.9663,914.53644,
1751399088.4749026,803.3724,1268.8274,1450.0,1042.0741,
1751399088.4787946,796.55743,701.9441,873.0269,791.8666,
1751399088.4826865,715.22003,185.9519,0.0,461.8263,
1751399088.4865785,676.3657,363.4957,113.11115,487.0506,
1751399088.4904704,726.3718,1080.3973,1145.9806,884.0017,
1751399088.4943624,799.3896,1288.3873,1450.0,1044.9062,
1751399088.4982543,803.1954,814.34717,848.9532,826.5611,
1751399088.5021462,717.2557,184.18178,0.0,483.59885,
1751399088.5060382,667.51514,254.1018,49.82909,451.0285,
1751399088.5099301,716.8132,1030.0372,1014.3716,840.5451,
1751399088.5138221,779.47565,1281.4839,1450.0,1033.0465,
1751399088.5177140,797.531,824.87946,1074.9984,853.55554,
1751399088.5216060,727.61096,218.69926,76.82354,516.2577,
1751399088.5254979,639.7241,189.40366,0.0,396.7741,
1751399088.5293899,665.3024,968.96783,1022.6027,755.4019,
1751399088.5332818,760.88934,1345.828,1450.0,1032.6924,
1751399088.5371735,801.6908,915.5985,1178.0199,901.08344,
1751399088.5410655,739.47076,275.34335,227.4614,568.12244,
1751399088.5449574,667.60364,210.64519,0.0,420.75934,
1751399088.5488493,692.65094,884.9753,772.48364,748.4984,
1751399088.5527413,763.63306,1337.5084,1450.0,1038.4453,
1751399088.5566332,776.46643,1018.61993,1353.0856,916.218,
1751399088.5605252,722.9201,490.50235,400.66837,585.91223,
1751399088.5644171,654.6817,265.25363,0.0,391.72922,
1751399088.5683091,660.34607,769.8285,658.753,667.0726,
1751399088.5722010,748.764,1200.943,1450.0,1017.73486,
1751399088.5760930,801.6023,1047.9155,1274.4033,972.9506,
1751399088.5799849,774.3423,423.94556,386.33035,672.11743,
1751399088.5838768,706.54645,98.33059,0.0,447.9308,
1751399088.5877688,688.57965,680.083,513.16,660.61163,
1751399088.5916607,751.8617,1307.5048,1450.0,1011.5394,
1751399088.5955527,794.3447,1142.5288,1450.0,991.2714,
1751399088.5994446,759.3847,471.91602,528.02905,686.45544,
1751399088.6033366,674.86115,108.42031,0.0,418.10413,
1751399088.6072285,647.24713,607.41925,535.37506,577.94666,
1751399088.6111205,725.13275,1252.0112,1363.6178,972.06555,
1751399088.6150124,792.2206,1178.7279,1450.0,1016.0532,
1751399088.6189044,782.30786,586.00073,711.41425,741.3294,
1751399088.6227963,724.86725,172.67595,0.0,467.04816,
1751399088.6266882,693.89,508.2036,269.41342,572.1937,
1751399088.6305802,738.2317,1215.3696,1298.5656,956.1344,
1751399088.6344721,783.45844,1277.7666,1450.0,1020.9211,
1751399088.6383638,767.0848,694.6866,707.43146,755.3134,
1751399088.6422558,688.57965,133.82164,0.0,448.72733,
1751399088.6461477,652.469,375.8866,186.48294,491.56442,
1751399088.6500397,723.8052,1142.8828,1171.4705,901.9685,
1751399088.6539316,796.20337,1326.0026,1450.0,1049.1547,
1751399088.6578236,789.03436,744.6042,898.4282,814.78973,
1751399088.6617155,723.0086,141.69872,0.0,487.1391,
1751399088.6656075,681.0566,312.0735,63.01654,475.01373,
1751399088.6694994,726.2833,1099.8688,1095.2665,875.5051,
1751399088.6733913,798.5046,1335.9153,1450.0,1058.5363,
1751399088.6772833,811.515,823.6404,1043.5787,854.44055,
1751399088.6811752,749.64905,230.55911,105.67661,531.74634,
1751399088.6850672,673.268,289.9469,88.32937,444.125,
1751399088.6889591,694.421,979.23456,941.9734,805.8506,
1751399088.6928511,773.1032,1310.3369,1450.0,1048.535,
1751399088.6967430,808.24023,899.66736,1185.543,896.74664,
1751399088.7006350,749.295,287.02618,169.66673,564.40515,
1751399088.7045269,673.1795,168.51614,0.0,419.87427,
1751399088.7084188,699.55444,863.1142,829.8358,758.6767,
1751399088.7123108,776.1124,1357.2454,1450.0,1045.7914,
1751399088.7162027,812.3115,1011.6279,1058.8018,926.30774,
1751399088.7200947,763.1905,311.985,179.93347,596.44446,
1751399088.7239866,673.9761,117.09394,0.0,402.704,
1751399088.7278786,672.8255,767.88135,671.5864,682.6497,
1751399088.7317705,757.7916,1321.4003,1450.0,1010.1233,
1751399088.7356625,814.52423,1035.6132,1367.9546,948.1688,
1751399088.7395542,761.24335,347.2105,359.77844,623.0849,
1751399088.7434461,662.9128,78.32815,0.0,380.57742,
1751399088.7473381,653.88513,699.4659,625.7401,619.4561,
1751399088.7512300,747.7019,1297.946,1450.0,1000.2106,
1751399088.7551219,803.2839,1106.6837,1448.5839,985.87256,
1751399088.7590139,763.456,448.99286,504.9289,669.9048,
1751399088.7629058,702.3866,103.72948,0.0,420.05127,
1751399088.7667978,681.3221,584.3191,433.1502,604.8526,
1751399088.7706897,733.8064,1246.9663,1398.0468,975.2518,
1751399088.7745817,786.9987,1172.5325,1450.0,993.74963,
1751399088.7784736,767.2618,555.73157,661.7622,707.697,
1751399088.7823656,696.8107,63.54758,0.0,429.43295,
1751399088.7862575,673.7106,426.33524,322.78278,564.9362,
1751399088.7901495,733.45233,1168.1072,1315.8243,958.43555,
1751399088.7940414,799.3896,1238.1157,1433.2723,1026.0544,
1751399088.7979333,786.5562,597.5951,707.16595,759.1192,
1751399088.8018253,697.25323,65.49472,0.0,443.06293,
1751399088.8057172,657.8679,366.15088,186.21742,507.58408,
1751399088.8096092,718.6718,1245.1078,1234.7524,915.24445,
1751399088.8135011,799.92065,1298.9196,1450.0,1045.0834,
1751399088.8173931,795.84937,541.74756,798.3275,799.0356,
1751399088.8212850,709.2901,96.11793,0.0,467.84473,
1751399088.8251770,651.761,351.81287,194.183,469.0838,
1751399088.8290689,709.99817,1045.6144,1099.6918,867.097,
1751399088.8329608,806.2046,1261.8354,1450.0,1054.465,
1751399088.8368528,808.15173,783.36993,1014.1946,839.483,
1751399088.8407447,722.7431,224.98322,18.32082,497.14032,
1751399088.8446364,683.1807,262.95245,0.08850638,458.109,
1751399088.8485284,717.3442,985.96106,991.0944,836.38525,
1751399088.8524203,779.6527,1326.3566,1450.0,1041.8086,
1751399088.8563123,809.3023,903.91565,1061.5455,871.52234,
1751399088.8602042,747.17084,220.64641,79.832756,534.84406,
1751399088.8640962,663.4438,165.06439,0.0,415.0949,
1751399088.8679881,699.1119,931.61816,866.566,783.10443,
1751399088.8718801,777.263,1295.4679,1450.0,1043.9327,
1751399088.8757720,797.885,908.42944,1249.4446,893.6489,
1751399088.8796639,744.8697,281.89282,189.49216,569.6271,
1751399088.8835559,664.5059,151.52292,0.0,408.27994,
1751399088.8874478,679.02094,861.34406,940.9998,714.9545,
1751399088.8913398,769.4744,1313.1692,1450.0,1030.3027,
1751399088.8952317,805.9391,991.3599,1321.3118,937.017,
1751399088.8991237,765.8457,369.0716,353.40598,612.3756,
1751399088.9030156,710.1752,184.80132,0.0,424.03406,
1751399088.9069076,707.697,748.4099,620.3412,686.36694,
1751399088.9107995,761.5089,1290.069,1450.0,1011.6279,
1751399088.9146914,798.239,1086.7698,1450.0,954.8953,
1751399088.9185834,757.7916,442.3549,626.5367,642.2908,
1751399088.9224753,683.0037,117.09394,0.0,408.63394,
1751399088.9263673,670.96686,634.0597,482.35977,618.8366,
1751399088.9302592,746.99384,1291.5736,1443.0966,991.891,
1751399088.9341512,805.054,1206.6959,1376.6282,994.6347,
1751399088.9380431,800.00916,506.07947,542.89813,719.8224,
1751399088.9419351,725.30975,96.648964,0.0,450.67447,
1751399088.9458268,670.70135,552.3683,354.46805,570.86615,
1751399088.9497187,741.5065,1277.5011,1351.7579,961.26776,
1751399088.9536107,804.7,1233.3364,1450.0,1011.5394,
1751399088.9575026,775.6699,568.29944,689.28766,726.8144,
1751399088.9613945,708.6706,148.95624,0.0,441.82385,
1751399088.9652865,668.5772,500.32657,417.3076,528.6486,
1751399088.9691784,722.12354,1178.1084,1263.2516,922.41345,
1751399088.9730704,793.10565,1256.0825,1450.0,1022.6912,
1751399088.9769623,788.94586,681.67615,855.2371,771.51013,
1751399088.9808543,715.5741,201.44052,0.0,464.56998,
1751399088.9847462,673.091,388.10046,129.57333,489.9713,
1751399088.9886382,734.957,1100.3998,1161.4692,889.66614,
1751399088.9925301,795.1413,1304.3185,1450.0,1033.7545,
1751399088.9964221,794.1677,797.08844,841.0761,807.17816,
1751399089.0003140,736.7271,179.75645,0.0,496.52078,
1751399089.0042059,683.7118,294.0182,59.476288,464.30447,
1751399089.0080979,711.8568,1050.4822,1027.7361,836.8278,
1751399089.0119898,793.9907,1282.3689,1450.0,1048.6235,
1751399089.0158818,817.79895,824.2599,1065.6168,868.9556,
1751399089.0197737,741.4179,230.38211,64.52115,532.27734,
1751399089.0236657,661.23114,233.12581,0.0,429.52145,
1751399089.0275576,684.86237,995.1657,1034.728,786.02515,
1751399089.0314496,768.5009,1344.1464,1450.0,1044.4637,
1751399089.0353415,794.5218,911.26166,1173.1521,890.6397,
1751399089.0392334,744.9582,282.60086,226.3108,565.5558,
1751399089.0431254,685.12787,213.38889,0.0,434.5663,
1751399089.0470173,713.2729,874.1775,793.9022,769.6515,
1751399089.0509090,788.2378,1314.0542,1450.0,1056.2351,
1751399089.0548010,809.0368,1004.8129,1341.4027,931.70667,
1751399089.0586929,756.99506,497.31735,379.51535,599.1882,
1751399089.0625849,666.3645,280.4767,0.0,389.42807,
1751399089.0664768,671.05536,789.38837,672.6485,673.7106,
1751399089.0703688,762.925,1204.6603,1450.0,1019.7705,
1751399089.0742607,807.26666,1022.16016,1244.8422,955.1608,
1751399089.0781527,768.05835,406.86383,358.27383,648.4862,
1751399089.0820446,696.89923,86.64774,0.0,421.64438,
1751399089.0859365,683.3577,664.5059,522.2761,645.65405,
1751399089.0898285,740.17883,1280.8643,1450.0,997.7324,
1751399089.0937204,788.85736,1097.9216,1450.0,973.1276,
1751399089.0976124,772.5722,448.37332,503.6013,677.0738,
1751399089.1015043,693.18195,109.74791,0.0,407.39487,
1751399089.1053963,650.5219,608.4813,532.18884,566.88336,
1751399089.1092882,722.9201,1236.6996,1368.7511,956.0459,
1751399089.1131802,796.2919,1163.6819,1450.0,994.7232,
1751399089.1170721,774.1653,571.8397,677.0738,713.1844,
1751399089.1209641,710.70624,162.14369,0.0,443.68246,
1751399089.1248560,681.2336,490.59085,282.33536,559.89136,
1751399089.1287479,725.9293,1174.3911,1307.5048,936.663,
1751399089.1326399,787.0872,1247.1434,1450.0,1014.54865,
1751399089.1365318,786.7332,680.5256,693.44745,759.65027,
1751399089.1404238,720.61896,135.14925,0.0,460.76422,
1751399089.1443157,660.16907,376.32913,196.13014,505.37143,
1751399089.1482077,696.6337,1131.3771,1184.5693,889.75464,
1751399089.1520994,764.7836,1311.93,1442.3884,1023.48773,
1751399089.1559913,765.04913,714.512,839.66003,794.8758,
1751399089.1598833,693.35895,120.98822,0.0,470.76544,
1751399089.1637752,637.5115,321.45517,77.7086,462.79987,
1751399089.1676672,689.7302,1091.6377,1107.7458,865.9464,
1751399089.1715591,773.9883,1282.8999,1450.0,1055.1731,
1751399089.1754510,764.25256,758.0571,1009.1497,835.0577,
1751399089.1793430,683.8888,183.73924,85.32015,495.3702,
1751399089.1832349,615.8274,266.4927,107.00421,430.0525,
1751399089.1871269,653.26556,955.6919,954.7183,805.5851,
1751399089.1910188,751.5077,1301.1323,1450.0,1049.5087,
1751399089.1949108,770.448,831.3404,1140.8472,882.05457,
1751399089.1988027,708.5821,198.16579,119.66062,550.33264,
1751399089.2026947,664.5059,230.11658,0.0,447.04572,
1751399089.2065866,692.91644,917.3686,864.53033,789.21136,
1751399089.2104785,741.1524,1313.6117,1450.0,1034.8165,
1751399089.2143705,758.41113,950.55853,1079.9548,904.35815,
1751399089.2182624,722.9201,294.28372,182.67717,592.28467,
1751399089.2221544,660.96564,140.45963,0.0,427.4858,
1751399089.2260463,670.1703,815.40924,710.2637,726.9029,
1751399089.2299383,749.295,1343.0844,1450.0,1039.596,
1751399089.2338302,796.3804,1033.0465,1359.281,958.43555,
1751399089.2377222,761.15485,366.06238,336.76678,643.6184,
1751399089.2416141,688.3141,147.36311,0.0,430.93756,
1751399089.2455060,678.75543,777.97107,716.9017,682.29565,
1751399089.2493980,745.4892,1307.9473,1450.0,1024.3728,
1751399089.2532899,791.9551,1078.3617,1431.7677,977.1104,
1751399089.2571816,762.3054,457.932,498.37943,671.8519,
1751399089.2610736,690.34973,143.1148,0.0,428.81342,
1751399089.2649655,681.94165,632.9976,472.8011,634.67926,
1751399089.2688575,754.6939,1279.7137,1418.8457,1006.58307,
1751399089.2727494,805.408,1203.2443,1450.0,1011.89343,
1751399089.2766414,781.51135,596.9755,656.4518,722.9201,
1751399089.2805333,702.91766,134.4412,0.0,437.0445,
1751399089.2844253,670.96686,525.28534,352.6094,574.4949,
1751399089.2883172,743.45355,1239.9744,1338.8359,972.24255,
1751399089.2922091,818.684,1264.2251,1447.1678,1035.2592,
1751399089.2961011,793.28265,611.04803,701.5901,756.72955,
1751399089.2999930,710.97174,102.04785,0.0,450.58597,
1751399089.3038850,670.4358,422.52945,217.01764,527.76355,
1751399089.3077769,720.79596,1264.6676,1259.7113,917.98816,
1751399089.3116689,797.885,1306.9736,1450.0,1038.0913,
1751399089.3155608,807.5322,580.3363,787.1757,806.2046,
1751399089.3194528,733.6294,148.86772,0.0,485.81152,
1751399089.3233447,674.59564,417.5731,224.54068,494.48514,
1751399089.3272367,718.05225,1105.4447,1130.315,888.86957,
1751399089.3311286,795.0528,1271.0402,1450.0,1042.1626,
1751399089.3350205,808.7713,768.6779,993.04156,823.1093,
1751399089.3389125,742.3915,226.93036,1.5046084,505.63693,
1751399089.3428044,675.9232,281.09625,20.356466,461.8263,
1751399089.3466964,711.23724,1012.69,1021.80615,845.2359,
1751399089.3505883,794.7873,1343.7924,1450.0,1059.0674,
1751399089.3544803,809.1253,896.4811,1053.6685,870.4602,
1751399089.3583720,737.5237,238.7902,66.91082,535.6406,
1751399089.3622639,669.9048,231.17867,0.0,433.59274,
1751399089.3661559,696.89923,956.2229,894.35693,787.6183,
1751399089.3700478,782.30786,1289.892,1450.0,1054.642,
1751399089.3739398,828.0657,910.2881,1232.0088,925.33417,
1751399089.3778317,765.9342,287.1147,165.06439,588.83295,
1751399089.3817236,671.40936,172.58743,0.0,416.95355,
1751399089.3856156,677.3393,894.888,990.8289,722.7431,
1751399089.3895075,769.1204,1345.651,1450.0,1035.7017,
1751399089.3933995,805.054,998.529,1293.8748,932.68024,
1751399089.3972914,750.6226,363.93823,322.60574,603.43646,
1751399089.4011834,676.8083,190.1117,0.0,407.04083,
1751399089.4050753,683.2692,764.7836,660.96564,680.26,
1751399089.4089673,765.13763,1297.769,1450.0,1019.682,
1751399089.4128592,814.17017,1103.4976,1450.0,961.6218,
1751399089.4167511,786.5562,476.34134,620.60675,661.8507,
1751399089.4206431,707.9625,139.66307,0.0,431.6456,
1751399089.4245350,691.8544,663.62085,517.40826,636.7149,
1751399089.4284270,759.7388,1295.2024,1450.0,991.0059,
1751399089.4323189,806.64716,1190.4993,1391.0548,981.3587,
1751399089.4362109,796.64594,497.67136,526.7015,692.82794,
1751399089.4401028,729.5581,93.72826,0.0,432.53067,
1751399089.4439948,689.9072,568.6535,388.80853,589.36395,
1751399089.4478867,747.7019,1276.5275,1372.8224,971.3575,
1751399089.4517787,813.3736,1208.112,1450.0,1007.4681,
1751399089.4556706,798.1505,562.458,660.52313,726.1063,
1751399089.4595625,722.38904,137.00787,0.0,442.7089,
1751399089.4634542,683.7118,496.25528,448.55032,545.73035,
1751399089.4673462,759.4732,1201.9166,1284.2275,956.3114,
1751399089.4712381,837.8899,1253.6929,1450.0,1052.1638,
1751399089.4751301,821.07367,659.107,836.47375,784.9631,
1751399089.4790220,740.17883,187.45651,0.0,479.9701,
1751399089.4829140,683.0037,389.69357,153.82408,516.70026,
1751399089.4868059,736.5501,1104.6481,1190.6763,910.1111,
1751399089.4906979,814.08167,1302.2828,1450.0,1060.9259,
1751399089.4945898,804.7885,780.0067,813.1081,829.30475,
1751399089.4984818,740.44434,161.70116,0.0,499.97253,
1751399089.5023737,691.8544,295.5228,86.82476,481.20917,
1751399089.5062656,726.9029,1053.6685,1063.5812,862.0521,
1751399089.5101576,809.6564,1270.0665,1450.0,1058.1823,
1751399089.5140495,833.8186,796.55743,1038.3568,871.0798,
1751399089.5179415,762.8365,211.79576,53.10383,534.66705,
1751399089.5218334,686.9865,247.19832,6.6379786,450.49747,
1751399089.5257254,726.5489,1015.7877,1043.2247,823.7289,
1751399089.5296173,809.1253,1321.3118,1450.0,1061.7225,
1751399089.5335093,820.71967,863.64526,1145.1841,890.8167,
1751399089.5374012,757.8801,251.44662,206.21986,553.43036,
1751399089.5412931,694.8636,211.97278,27.171457,432.44217,
1751399089.5451851,725.48676,882.32007,827.8887,783.0159,
1751399089.5490770,809.7449,1319.6301,1450.0,1065.0858,
1751399089.5529690,837.8899,995.0772,1313.5232,931.2641,
1751399089.5568609,774.78485,473.42062,338.89093,595.91345,
1751399089.5607529,703.27167,292.60208,0.0,420.75934,
1751399089.5646446,723.6282,744.5157,719.0258,727.78796,
1751399089.5685365,797.35394,1176.3383,1450.0,1045.3489,
1751399089.5724285,822.6668,1045.5259,1216.9626,944.18604,
1751399089.5763204,781.4228,384.7372,327.2966,627.59875,
1751399089.5802124,711.06024,98.24208,0.0,412.52823,
1751399089.5841043,706.3694,698.4923,557.5902,653.97363,
1751399089.5879962,786.11365,1302.2828,1450.0,1011.18536,
1751399089.5918882,842.84625,1100.2228,1450.0,985.60706,
1751399089.5957801,805.8506,423.41452,475.01373,679.8175,
1751399089.5996721,703.36017,90.36501,0.0,412.70523,
1751399089.6035640,674.94965,627.68726,556.2626,593.5238,
1751399089.6074560,761.5089,1272.1907,1389.9042,984.2794,
1751399089.6113479,811.692,1152.884,1450.0,991.891,
1751399089.6152399,780.7148,529.6222,635.38727,697.34174,
1751399089.6191318,714.42346,129.21931,0.0,428.28238,
1751399089.6230237,679.19794,502.89325,308.88727,550.8637,
1751399089.6269157,744.6042,1222.0076,1325.737,940.29175,
1751399089.6308076,809.2138,1252.4537,1450.0,1008.6187,
1751399089.6346996,798.9471,656.71735,678.66693,746.02026,
1751399089.6385915,723.8937,110.987,0.0,445.09857,
1751399089.6424835,673.53357,378.45328,219.84984,503.07025,
1751399089.6463754,734.69147,1165.7175,1210.8557,909.403,
1751399089.6502674,789.47687,1310.5139,1406.8088,1019.9475,
1751399089.6541593,791.5126,685.57043,794.6988,780.1837,
1751399089.6580513,733.2753,141.07916,0.0,480.50113,
1751399089.6619432,657.33685,350.30826,87.00177,461.8263,
1751399089.6658351,701.1475,1105.7102,1117.5701,846.121,
1751399089.6697268,781.2458,1293.2552,1450.0,1021.4521,
1751399089.6736188,792.3091,753.01227,978.52655,808.8598,
1751399089.6775107,733.6294,173.73802,61.15791,493.33456,
1751399089.6814027,670.0818,302.5148,116.03186,438.99164,
1751399089.6852946,701.5016,1008.6187,977.2874,813.99316,
1751399089.6891866,770.71356,1285.4667,1450.0,1027.4706,
1751399089.6930785,787.7953,842.58075,1110.578,838.1554,
1751399089.6969705,729.38104,254.19032,102.40188,511.03583,
1751399089.7008624,661.14264,172.85295,0.0,408.45694,
1751399089.7047544,675.12665,848.7762,863.55676,742.48,
1751399089.7086463,751.6847,1292.1931,1450.0,1000.1221,
1751399089.7125382,791.6011,913.82837,927.2813,865.8579,
1751399089.7164302,731.4167,221.00043,87.09028,532.45435,
1751399089.7203221,643.7069,75.58445,0.0,363.76123,
1751399089.7242141,653.44257,770.1825,700.9705,669.3737,
1751399089.7281060,719.5569,1292.9011,1450.0,971.3575,
1751399089.7319980,744.3386,933.5653,1173.0636,870.63727,
1751399089.7358899,691.3233,261.80188,265.34213,542.45557,
1751399089.7397819,614.8538,66.73381,0.0,346.05994,
1751399089.7436738,617.24347,697.34174,594.4973,609.4549,
1751399089.7475657,696.7222,1217.1398,1450.0,951.7976,
1751399089.7514577,745.0467,972.7736,1325.56,908.695,
1751399089.7553496,705.3958,363.23016,386.50735,600.16174,
1751399089.7592416,611.13654,66.99933,0.0,352.3439,
1751399089.7631335,586.35474,537.7648,458.109,549.27057,
1751399089.7670255,663.70935,1187.4016,1406.0123,923.7411,
1751399089.7709172,716.3706,1105.7102,1450.0,922.5905,
1751399089.7748091,685.65894,492.98053,637.777,630.2539,
1751399089.7787011,611.8446,72.92925,0.0,372.52335,
1751399089.7825930,581.66394,492.4495,348.00708,524.40027,
1751399089.7864850,648.66327,1209.9707,1348.7487,913.1203,
1751399089.7903769,709.64417,1221.5651,1343.7039,967.0207,
1751399089.7942688,681.4991,553.5189,590.7801,686.544,
1751399089.7981608,608.8354,63.193554,0.0,392.79132,
1751399089.8020527,572.1052,433.1502,237.02008,486.7851,
1751399089.8059447,627.4217,1254.8434,1255.3745,889.93164,
1751399089.8098366,708.9361,1194.482,1447.1678,998.0864,
1751399089.8137286,695.3946,547.2349,742.65704,734.51447,
1751399089.8176205,607.15375,130.28139,0.0,411.37766,
1751399089.8215125,552.98785,387.92346,226.84184,431.11456,
1751399089.8254044,597.418,1094.0273,1148.2817,814.96674,
1751399089.8292964,670.4358,1245.2848,1450.0,952.9482,
1751399089.8331883,658.0449,720.79596,944.9826,713.2729,
1751399089.8370802,586.35474,176.74724,0.0,394.0304,
1751399089.8409722,532.7199,273.13068,34.42898,353.58298,
1751399089.8448641,547.589,977.907,1035.5247,701.9441,
1751399089.8487561,623.2619,1249.0021,1450.0,897.45465,
1751399089.8526480,639.9896,817.62195,971.71155,706.3694,
1751399089.8565400,562.104,198.78532,22.657633,368.18652,
1751399089.8604319,502.62772,205.77733,0.0,283.57443,
1751399089.8643239,529.4451,944.36304,912.0582,643.08734,
1751399089.8682158,595.3824,1263.3401,1450.0,882.58563,
1751399089.8721077,627.3332,843.20026,1212.0948,739.7363,
1751399089.8759995,591.2226,247.55234,141.25618,435.6284,
1751399089.8798914,533.5165,180.28749,0.0,299.50558,
1751399089.8837833,552.1028,911.35016,1022.6027,622.2883,
1751399089.8876753,649.90234,1352.9084,1450.0,929.40546,
1751399089.8915672,705.4843,1014.54865,1295.3794,835.58875,
1751399089.8954592,670.96686,396.8626,335.9702,530.59576,
1751399089.8993511,609.4549,258.1731,0.0,362.52213,
1751399089.9032431,635.82983,854.35205,719.2913,664.5944,
1751399089.9071350,736.5501,1363.2638,1450.0,1011.5394,
1751399089.9110270,785.3171,1147.3082,1450.0,947.19525,
1751399089.9149189,745.4892,511.65536,626.5367,633.8827,
1751399089.9188108,680.7911,222.59354,0.0,422.1754,
1751399089.9227028,685.4819,777.3515,593.16974,656.80585,
1751399089.9265947,778.50214,1383.6202,1450.0,1029.8602,
1751399089.9304867,846.82904,1291.4851,1450.0,1031.2764,
1751399089.9343786,832.31396,599.01117,607.24225,739.7363,
1751399089.9382706,783.724,242.33046,0.0,509.08868,
1751399089.9421625,777.086,741.949,491.56442,694.1555,
1751399089.9460545,830.7209,1344.3234,1409.2871,1060.1294,
1751399089.9499464,896.0386,1297.6805,1450.0,1096.594,
1751399089.9538383,892.4983,681.85315,721.5925,819.038,
1751399089.9577303,811.42645,269.67892,0.0,535.46356,
1751399089.9616222,793.5482,702.2096,611.31354,667.0726,
1751399089.9655142,880.8155,1317.86,1356.9797,1068.449,
1751399089.9694061,952.5057,1352.82,1450.0,1145.4496,
1751399089.9732981,956.93097,811.7805,946.0447,902.234,
1751399089.9771898,883.6477,328.8012,0.0,604.49854,
1751399089.9810817,836.38525,571.48566,259.85474,648.3977,
1751399089.9849737,909.226,1237.3192,1280.0677,1050.6592,
1751399089.9888656,996.75885,1406.7203,1450.0,1188.0211,
1751399089.9927576,994.36914,926.8388,919.49274,948.6114,
1751399089.9966495,931.0871,321.72067,0.0,635.82983,
1751399090.0005414,888.51556,506.6105,206.92792,633.4401,
1751399090.0044334,932.94574,1209.1742,1204.0408,1014.72565,
1751399090.0083253,1017.0268,1334.4106,1450.0,1200.058,
1751399090.0122173,1041.1891,910.0226,1152.4415,1004.37036,
1751399090.0161092,985.78406,374.20496,77.620094,685.92444,
1751399090.0200012,920.8204,460.05615,117.27095,616.0929,
1751399090.0238931,938.52167,1167.7532,1159.9646,963.2149,
1751399090.0277851,1022.16016,1446.5482,1450.0,1195.6327,
1751399090.0316770,1064.1122,1061.5455,1212.0948,1042.6936,
1751399090.0355690,1009.7693,444.83307,287.99976,718.5833,
1751399090.0394609,935.1584,430.0525,198.5198,589.36395,
1751399090.0433528,964.3655,1056.1466,979.7656,924.1836,
1751399090.0472448,1052.9603,1412.2963,1450.0,1193.6855,
1751399090.0511367,1080.2203,1088.3629,1375.5662,1048.2695,
1751399090.0550287,1014.90265,560.8649,438.7261,706.72345,
1751399090.0589206,944.18604,407.66037,0.0,532.36584,
1751399090.0628126,956.66547,827.0921,762.8365,816.4713,
1751399090.0667045,1028.8866,1262.7205,1450.0,1112.5251,
1751399090.0705965,1067.6525,1052.0753,1202.5361,1015.6992,
1751399090.0744884,1011.27386,302.3378,299.5941,680.26,
1751399090.0783803,905.9513,46.996887,0.0,433.50424,
1751399090.0822721,885.1523,630.608,557.8557,657.42535,
1751399090.0861640,942.76996,1213.5995,1445.8402,984.1024,
1751399090.0900559,973.3931,915.51,938.2561,923.8296,
1751399090.0939479,922.9445,261.80188,197.54623,595.3824,
1751399090.0978398,816.5599,0.0,0.0,329.68625,
1751399090.1017318,768.32385,405.44772,362.43362,508.0266,
1751399090.1056237,814.78973,989.76685,1335.2958,855.5027,
1751399090.1095157,844.9704,842.4037,617.24347,849.66125,
1751399090.1134076,793.6367,281.4503,0.0,550.5097,
1751399090.1172996,697.6958,0.0,0.0,275.34335,
1751399090.1211915,636.44934,274.90082,172.23341,400.66837,
1751399090.1250834,678.22437,924.62616,1252.7192,786.46765,
1751399090.1289754,727.61096,927.5469,860.72455,849.83826,
1751399090.1328673,696.36816,393.23383,186.30592,581.3099,
1751399090.1367593,609.1009,5.9299273,0.0,303.57687,
1751399090.1406512,555.82007,209.05206,87.70982,387.83496,
1751399090.1445432,605.2066,939.76074,1224.2202,792.75165,
1751399090.1484351,675.7462,1094.0273,893.47186,922.05945,
1751399090.1523271,664.06335,481.2977,84.966125,676.7198,
1751399090.1562190,587.0628,20.799,0.08850638,368.71756,
1751399090.1601110,525.01984,250.29604,61.33492,383.58664,
1751399090.1640029,563.60864,984.1909,1121.2874,777.086,
1751399090.1678948,643.7069,1157.8405,1395.0376,943.7435,
1751399090.1717868,649.0173,626.3596,575.557,735.84204,
1751399090.1756787,577.85815,95.49838,25.40133,424.7421,
1751399090.1795707,513.4255,228.8775,68.94647,376.68314,
1751399090.1834624,555.3775,915.24445,955.2493,764.96063,
1751399090.1873543,641.67126,1209.1742,1450.0,988.9703,
1751399090.1912463,656.0978,713.62695,953.83325,814.87823,
1751399090.1951382,596.44446,120.10316,63.01654,502.2737,
1751399090.1990302,536.6142,198.6083,0.0,408.98798,
1751399090.2029221,557.05914,906.0398,884.1787,758.0571,
1751399090.2068141,644.6805,1327.4187,1450.0,1020.213,
1751399090.2107060,680.26,952.8597,973.3931,882.58563,
1751399090.2145979,620.3412,270.12146,92.48917,555.55457,
1751399090.2184899,555.466,169.93225,0.0,417.6616,
1751399090.2223818,591.3996,876.03613,770.3595,751.5962,
1751399090.2262738,677.95886,1354.6786,1450.0,1049.5972,
1751399090.2301657,726.8144,1017.3808,1324.0554,953.83325,
1751399090.2340577,684.50836,358.98187,283.2204,628.8378,
1751399090.2379496,595.91345,181.26106,0.0,424.6536,
1751399090.2418416,604.9411,845.85547,826.6496,703.44867,
1751399090.2457335,698.3153,1360.4315,1450.0,1041.7201,
1751399090.2496254,754.16284,1103.232,1399.3744,988.3507,
1751399090.2535174,712.5649,477.4034,462.0033,673.53357,
1751399090.2574093,630.4309,198.16579,0.0,432.9732,
1751399090.2613013,623.4389,708.3165,547.589,647.6012,
1751399090.2651932,705.9269,1312.9036,1450.0,1009.7693,
1751399090.2690852,782.39636,1175.8958,1450.0,1014.2831,
1751399090.2729771,772.30664,571.48566,644.1494,724.95575,
1751399090.2768691,689.11066,164.71037,0.0,450.763,
1751399090.2807610,656.0978,600.6043,419.52023,608.6584,
1751399090.2846529,728.93854,1290.1575,1389.9042,989.0588,
1751399090.2885447,780.6263,1252.8962,1441.5034,1009.5038,
1751399090.2924366,766.9078,585.29266,658.3989,733.0983,
1751399090.2963285,699.64294,110.01343,0.0,454.30325,
1751399090.3002205,646.8931,485.98853,281.5388,541.57056,
1751399090.3041124,698.9349,1246.6123,1267.2344,929.05145,
1751399090.3080044,777.52856,1179.259,1450.0,1030.3027,
1751399090.3118963,773.8113,578.12366,753.98584,766.4652,
1751399090.3157883,696.01416,139.92859,0.0,453.32968,
1751399090.3196802,649.99084,404.73965,250.47305,500.9461,
1751399090.3235722,704.42224,1095.532,1160.0531,888.86957,
1751399090.3274641,792.92865,1226.0789,1450.0,1038.4453,
1751399090.3313560,789.29987,694.1555,905.0662,801.0712,
1751399090.3352480,695.83716,170.46329,0.0,461.47226,
1751399090.3391399,636.44934,275.60886,56.113045,447.75378,
1751399090.3430319,686.18994,990.6519,1063.4042,835.50024,
1751399090.3469238,767.96985,1274.8458,1450.0,1023.6648,
1751399090.3508158,780.9803,815.7633,924.3606,828.1542,
1751399090.3547077,717.1672,177.89783,0.0,503.6898,
1751399090.3585997,649.0173,204.36122,0.0,429.16742,
1751399090.3624916,672.29443,942.68146,929.848,787.9723,
1751399090.3663836,740.5329,1242.2755,1450.0,1014.1946,
1751399090.3702755,761.33185,806.4701,1144.83,846.0325,
1751399090.3741674,714.42346,205.77733,92.84319,533.605,
1751399090.3780594,643.26434,162.94025,0.0,415.0949,
1751399090.3819513,652.469,893.47186,1025.1694,734.86847,
1751399090.3858433,741.8605,1289.9805,1450.0,1023.39923,
1751399090.3897350,760.62384,911.08466,1217.4053,890.6397,
1751399090.3936269,693.8015,289.8584,247.64085,554.40393,
1751399090.3975189,627.2447,170.8173,0.0,393.05682,
1751399090.4014108,644.946,784.52057,687.1635,687.5176,
1751399090.4053028,715.043,1251.1262,1450.0,995.9623,
1751399090.4091947,749.64905,1002.3347,1389.3732,914.53644,
1751399090.4130867,711.6798,372.25784,467.75623,600.42725,
1751399090.4169786,639.28156,83.196,0.0,399.6063,
1751399090.4208705,624.324,655.9208,557.14764,638.83905,
1751399090.4247625,701.3245,1261.4814,1450.0,984.8105,
1751399090.4286544,770.271,1118.8976,1239.0894,970.3839,
1751399090.4325464,721.76953,425.09613,384.11768,651.3184,
1751399090.4364383,622.9079,67.17634,0.0,387.56943,
1751399090.4403303,600.5158,589.718,419.34323,577.94666,
1751399090.4442222,668.7542,1257.6757,1400.7904,946.3102,
1751399090.4481142,743.6306,1132.2621,1450.0,970.915,
1751399090.4520061,714.6005,461.56076,550.42114,683.3577,
1751399090.4558980,627.1562,78.41665,0.0,403.50058,
1751399090.4597900,600.7813,514.22205,457.13544,538.3843,
1751399090.4636819,657.9564,1193.8625,1313.0807,919.6698,
1751399090.4675739,726.5489,1200.589,1450.0,981.8013,
1751399090.4714658,722.5661,612.5527,742.48,730.0006,
1751399090.4753578,657.8679,177.72081,0.0,450.32047,
1751399090.4792497,613.3492,448.72733,199.58188,518.6474,
1751399090.4831417,654.6817,1142.5288,1238.6467,901.7915,
1751399090.4870336,724.86725,1264.8446,1450.0,1009.9463,
1751399090.4909256,727.0799,717.3442,715.6626,770.3595,
1751399090.4948173,657.15985,137.89294,0.0,460.5872,
1751399090.4987092,610.33997,341.2806,140.37111,476.51834,
1751399090.5026011,654.8587,1108.2769,1113.2333,862.6717,
1751399090.5064931,728.496,1248.825,1427.1654,1016.5843,
1751399090.5103850,743.18805,744.3386,913.4743,814.34717,
1751399090.5142770,675.9232,211.17622,22.038088,502.62772,
1751399090.5181689,615.0308,305.2585,35.13703,447.39975,
1751399090.5220609,643.9724,1069.5111,1076.503,816.4713,
1751399090.5259528,722.03503,1328.0382,1450.0,1030.4797,
1751399090.5298448,743.6306,846.65204,1081.6365,848.6877,
1751399090.5337367,682.9152,263.83752,153.82408,524.13477,
1751399090.5376287,625.8286,297.64694,77.17756,434.3893,
1751399090.5415206,660.61163,984.545,893.11786,785.84814,
1751399090.5454125,729.5581,1334.9417,1450.0,1035.1707,
1751399090.5493045,748.3214,954.7183,1253.6929,889.84314,
1751399090.5531964,698.4038,470.85394,253.65929,570.2466,
1751399090.5570884,628.30676,333.75757,0.0,417.4846,
1751399090.5609803,648.4862,773.1032,763.89856,732.47876,
1751399090.5648723,732.7443,1262.986,1450.0,1034.1085,
1751399090.5687642,763.98706,1081.1055,1226.1674,924.98016,
1751399090.5726562,718.14075,371.01874,287.38022,606.88824,
1751399090.5765481,656.62885,154.79765,0.0,425.8927,
1751399090.5804400,670.52435,778.59064,639.19305,695.66016,
1751399090.5843320,739.38226,1319.0106,1450.0,1019.505,
1751399090.5882239,768.32385,1057.7397,1412.3848,952.5057,
1751399090.5921159,723.5397,390.0476,416.06848,636.18384,
1751399090.5960076,652.115,128.15724,0.0,411.46616,
1751399090.5998995,646.6276,716.3706,606.62274,629.6344,
1751399090.6037915,730.0891,1300.9552,1432.2987,991.1829,
1751399090.6076834,781.4228,1135.5369,1450.0,978.96906,
1751399090.6115754,743.9846,506.07947,558.0327,678.13586,
1751399090.6154673,675.39215,129.30782,0.0,419.1662,
1751399090.6193593,650.8759,540.774,368.18652,577.0616,
1751399090.6232512,698.0498,1195.7212,1366.3615,939.67224,
1751399090.6271431,740.00183,1164.1244,1450.0,959.0551,
1751399090.6310351,717.2557,559.0063,633.3516,679.729,
1751399090.6349270,656.1863,80.36379,0.0,403.7661,
1751399090.6388190,620.96075,409.519,252.06616,500.14954,
1751399090.6427109,674.77264,1124.4735,1273.6068,887.8075,
1751399090.6466029,741.6835,1206.6074,1187.4901,973.1276,
1751399090.6504948,729.20404,575.20294,504.13232,719.5569,
1751399090.6543868,652.3805,41.243973,0.0,410.5811,
1751399090.6582787,590.426,298.00098,106.650185,430.58353,
1751399090.6621706,626.6252,1043.6672,1151.3795,820.71967,
1751399090.6660626,697.8728,1172.7095,1450.0,970.4724,
1751399090.6699545,710.0867,639.9011,774.69635,754.07434,
1751399090.6738465,638.92755,128.51126,10.001221,445.3641,
1751399090.6777384,567.06036,309.24127,116.651405,419.87427,
1751399090.6816304,605.6492,1011.89343,1020.3015,797.26544,
1751399090.6855223,695.83716,1246.3468,1450.0,1005.16693,
1751399090.6894143,705.6614,783.19293,1027.7361,819.1265,
1751399090.6933062,629.6344,236.40054,43.0141,487.93567,
1751399090.6971982,563.0776,230.02808,0.0,412.35123,
1751399090.7010899,594.1433,918.25366,940.20325,772.39514,
1751399090.7049818,693.27045,1326.0026,1450.0,1028.8866,
1751399090.7088737,732.6558,945.0711,1019.32794,889.57764,
1751399090.7127657,661.23114,292.07104,98.15357,559.0948,
1751399090.7166576,587.5054,241.35689,0.0,428.19385,
1751399090.7205496,628.8378,954.01025,830.1898,777.52856,
1751399090.7244415,726.1063,1382.2041,1450.0,1067.2985,
1751399090.7283335,745.93176,1019.41644,1311.6646,928.3434,
1751399090.7322254,687.5176,372.25784,259.5892,600.7813,
1751399090.7361174,623.79297,231.09015,0.0,439.16864,
1751399090.7400093,641.4057,909.049,918.16516,732.47876,
1751399090.7439013,729.9121,1400.2594,1450.0,1061.0145,
1751399090.7477932,776.2009,1131.5541,1386.0984,987.8197,
1751399090.7516851,740.44434,514.22205,457.22394,673.3565,
1751399090.7555771,673.7991,272.42264,0.0,459.4366,
1751399090.7594690,679.28644,814.25867,628.7493,708.1395,
1751399090.7633610,764.25256,1374.5925,1450.0,1063.4927,
1751399090.7672529,826.29553,1243.7802,1450.0,1032.8694,
1751399090.7711449,803.90344,650.8759,632.9091,745.0467,
1751399090.7750368,726.9029,247.19832,0.0,492.98053,
1751399090.7789288,698.4038,690.5268,496.52078,660.87714,
1751399090.7828207,771.51013,1353.7936,1428.7584,1038.1798,
1751399090.7867126,840.7221,1345.297,1450.0,1063.0502,
1751399090.7906046,817.1794,677.3393,718.5833,772.5722,
1751399090.7944965,763.54456,224.8062,0.0,510.94733,
1751399090.7983885,743.09955,649.63684,377.21417,646.27356,
1751399090.8022802,792.75165,1324.4979,1347.5096,1026.7625,
1751399090.8061721,856.56476,1208.6431,1450.0,1079.9548,
1751399090.8100641,840.45654,629.8114,810.0989,805.5851,
1751399090.8139560,774.4308,247.81786,0.0,515.8152,
1751399090.8178480,721.76953,545.1993,429.43295,567.59143,
1751399090.8217399,773.2802,1216.6971,1257.3217,948.7884,
1751399090.8256319,842.66925,1296.2644,1450.0,1056.8546,
1751399090.8295238,831.0749,742.56854,966.4011,813.1081,
1751399090.8334157,765.40314,248.26039,0.0,505.63693,
1751399090.8373077,722.8316,416.06848,116.03186,508.64615,
1751399090.8411996,768.9434,1134.5632,1158.283,894.534,
1751399090.8450916,851.16583,1355.4752,1450.0,1069.2456,
1751399090.8489835,870.9028,861.16705,1004.19336,864.53033,
1751399090.8528755,809.6564,248.87994,7.8770676,554.2269,
1751399090.8567674,748.6755,320.7471,27.34847,505.63693,
1751399090.8606594,788.3263,1049.5972,1034.8165,868.07056,
1751399090.8645513,874.53156,1296.5299,1450.0,1081.371,
1751399090.8684433,892.94086,863.4682,1173.5946,906.92487,
1751399090.8723352,823.6404,301.80676,105.76512,579.8938,
1751399090.8762271,747.9674,298.97455,0.0,470.6769,
1751399090.8801191,786.46765,1036.5867,1067.1215,819.9231,
1751399090.8840110,884.8868,1400.5249,1450.0,1089.956,
1751399090.8879030,907.63293,996.4048,1245.6388,947.9918,
1751399090.8917949,848.4221,372.87738,287.91125,621.04926,
1751399090.8956869,776.555,295.78833,0.0,472.18152,
1751399090.8995788,797.26544,927.1928,816.7369,786.02515,
1751399090.9034705,883.29364,1362.9982,1450.0,1088.9824,
1751399090.9073625,925.06866,1105.1792,1448.8494,1001.27264,
1751399090.9112544,878.3373,496.34378,571.9282,691.8544,
1751399090.9151464,806.2046,258.61563,0.0,495.5472,
1751399090.9190383,814.52423,852.2279,685.12787,758.5882,
1751399090.9229302,891.7018,1405.5698,1450.0,1090.31,
1751399090.9268222,944.18604,1245.2848,1424.9526,1042.6051,
1751399090.9307141,912.2352,541.2165,512.71747,738.2317,
1751399090.9346061,828.3312,200.90948,0.0,501.1231,
1751399090.9384980,814.87823,739.38226,565.9098,701.236,
1751399090.9423900,889.75464,1348.9257,1450.0,1062.519,
1751399090.9462819,952.8597,1225.9904,1450.0,1063.7582,
1751399090.9501739,934.4503,584.3191,617.86304,772.8377,
1751399090.9540658,858.6004,240.0293,0.0,513.16,
1751399090.9579577,830.4553,691.2348,640.2551,653.79663,
1751399090.9618497,898.1627,1306.8851,1387.957,1025.2579,
1751399090.9657416,973.2161,1270.2435,1450.0,1078.3617,
1751399090.9696336,961.7103,653.7081,782.13086,803.4609,
1751399090.9735255,868.07056,214.09692,0.0,499.353,
1751399090.9774175,822.40125,495.98975,250.56155,578.9202,
1751399090.9813094,872.7614,1147.6622,1294.1403,951.5321,
1751399090.9852014,941.4423,1229.8846,1450.0,1039.242,
1751399090.9890933,933.47675,689.9957,701.9441,792.4861,
1751399090.9929852,851.25433,144.3539,0.0,486.25406,
1751399090.9968772,794.6103,372.43484,178.60587,518.11633,
1751399091.0007691,846.91754,1119.0747,1147.6622,905.3317,
1751399091.0046611,930.025,1250.5066,1437.0781,1058.4478,
1751399091.0085528,920.5549,714.9545,917.98816,839.12897,
1751399091.0124447,849.4842,180.28749,0.0,522.5417,
1751399091.0163367,790.45044,340.83807,64.43264,506.16797,
1751399091.0202286,821.07367,1116.6849,1108.7194,877.0982,
1751399091.0241206,917.1916,1343.1729,1450.0,1076.7686,
1751399091.0280125,937.45953,861.5211,1088.0974,908.07544,
1751399091.0319045,877.8948,315.79077,167.9851,596.09045,
1751399091.0357964,807.7092,400.31436,168.42764,509.1772,
1751399091.0396883,831.60596,1082.5215,1001.8922,867.98206,
1751399091.0435803,920.7319,1415.1285,1450.0,1124.8275,
1751399091.0474722,959.9402,1073.2284,1369.7247,987.9967,
1751399091.0513642,925.24567,626.0941,366.77045,686.27844,
1751399091.0552561,879.22235,559.89136,160.10803,574.2294,
1751399091.0591481,908.25244,992.51056,1166.2485,906.3053,
1751399091.0630400,987.6427,1422.209,1450.0,1189.8798,
1751399091.0669320,1027.2936,1279.0942,1428.8469,1076.5916,
1751399091.0708239,999.237,609.98596,368.36356,774.69635,
1751399091.0747159,940.38025,459.4366,265.43063,607.8618,
1751399091.0786078,967.55176,1056.3236,1314.4967,892.3213,
1751399091.0824997,1068.095,1437.9631,1450.0,1216.5201,
1751399091.0863917,1119.0747,1307.1508,1450.0,1155.7163,
1751399091.0902836,1103.4976,714.9545,562.8121,862.1406,
1751399091.0941756,1038.0913,473.1551,316.5873,643.26434,
1751399091.0980675,1036.0557,1053.3145,1360.0775,867.274,
1751399091.1019595,1145.8036,1438.4056,1428.1389,1241.479,
1751399091.1058514,1222.7156,1365.8304,1450.0,1227.2295,
1751399091.1097431,1194.0396,836.9163,787.0872,914.80194,
1751399091.1136351,1133.3242,471.56198,261.53635,665.3909,
1751399091.1175270,1128.1908,913.1203,1225.4594,835.85425,
1751399091.1214190,1205.2799,1393.002,1450.0,1189.3488,
1751399091.1253109,1268.1194,1363.7948,1450.0,1193.774,
1751399091.1292028,1246.2583,820.89667,720.88446,899.1363,
1751399091.1330948,1170.8508,313.13556,0.0,610.6055,
1751399091.1369867,1138.9885,649.90234,644.592,711.8568,
1751399091.1408787,1204.1293,1306.7966,1391.4973,1077.4767,
1751399091.1447706,1262.5435,1346.359,1450.0,1129.9609,
1751399091.1486626,1243.6917,667.1611,831.78296,845.1474,
1751399091.1525545,1154.5657,105.94214,0.0,526.1704,
1751399091.1564465,1086.7698,392.26028,173.4725,562.5466,
1751399091.1603384,1124.1195,1082.1675,1217.9363,921.88245,
1751399091.1642303,1183.3303,1125.8011,1450.0,1026.7625,
1751399091.1681223,1163.7704,540.5085,750.18005,775.8469,
1751399091.1720142,1056.2351,59.476288,0.0,437.133,
1751399091.1759062,963.8345,206.92792,71.247635,414.38687,
1751399091.1797981,999.237,842.1382,1067.033,788.0608,
1751399091.1836901,1068.5375,1054.7305,1322.7278,951.08954,
1751399091.1875820,1054.111,538.56134,476.78387,751.2421,
1751399091.1914740,965.6046,61.77745,12.744919,442.7089,
1751399091.1953659,872.5844,155.94824,0.0,370.3107,
1751399091.1992579,891.0822,800.7172,927.4583,728.58453,
1751399091.2031498,978.96906,1125.8896,1450.0,964.98505,
1751399091.2070417,977.0219,673.3565,597.3295,794.1677,
1751399091.2109337,893.11786,107.800766,9.558689,467.4022,
1751399091.2148254,816.7369,67.70738,0.0,355.1761,
1751399091.2187173,819.9231,736.01904,820.1886,687.5176,
1751399091.2226093,890.8167,1179.7015,1402.7375,950.11597,
1751399091.2265012,916.6606,736.5501,599.54224,816.9139,
1751399091.2303932,853.82104,150.28383,89.92248,495.4587,
1751399091.2342851,765.22614,41.155464,0.0,326.85406,
1751399091.2381771,750.8881,665.6565,651.2299,613.1722,
1751399091.2420690,821.4277,1103.409,1388.665,909.8456,
1751399091.2459610,857.71533,735.84204,575.734,814.34717,
1751399091.2498529,794.3447,201.352,69.56602,495.7242,
1751399091.2537448,698.2268,10.797778,0.0,284.548,
1751399091.2576368,679.729,478.37698,481.3862,531.92334,
1751399091.2615287,741.0639,1020.036,1368.7511,859.3969,
1751399091.2654207,781.86536,820.71967,676.9853,814.17017,
1751399091.2693126,736.37305,293.9297,156.03674,530.59576,
1751399091.2732046,656.4518,7.9655743,0.0,306.94012,
1751399091.2770965,630.2539,438.01807,338.3599,508.29214,
1751399091.2809885,686.898,1073.9364,1437.5206,862.8487,
1751399091.2848804,733.7179,983.5714,872.9384,857.18427,
1751399091.2887723,699.2004,361.9026,94.170784,578.12366,
1751399091.2926643,627.4217,0.0,0.0,328.09314,
1751399091.2965562,598.3031,403.05804,264.72256,468.9068,
1751399091.3004482,641.0517,1196.1637,1277.3241,837.4473,
1751399091.3043401,702.4751,986.5806,872.8499,892.94086,
1751399091.3082321,682.38416,358.53934,215.77855,634.59076,
1751399091.3121240,608.3928,52.661297,0.0,360.92902,
1751399091.3160157,567.23737,369.69113,210.73369,441.29282,
1751399091.3199077,611.31354,1025.8774,1209.8822,817.79895,
1751399091.3237996,685.92444,1078.5387,1323.4359,916.041,
1751399091.3276916,688.4026,537.6763,510.5933,683.4462,
1751399091.3315835,606.4457,71.60166,0.0,386.06482,
1751399091.3354754,557.5902,262.50992,84.966125,417.21906,
1751399091.3393674,609.89746,988.2622,1108.4539,807.8862,
1751399091.3432593,679.19794,1186.1625,1450.0,951.17804,
1751399091.3471513,690.9693,695.92566,705.7499,742.0375,
1751399091.3510432,625.7401,120.89971,0.0,441.11578,
1751399091.3549352,563.4316,237.72813,46.73137,415.1834,
1751399091.3588271,612.7297,990.5634,1004.9014,798.9471,
1751399091.3627191,697.25323,1241.656,1450.0,993.83813,
1751399091.3666110,708.1395,792.3091,1025.789,805.3195,
1751399091.3705029,650.43335,223.92114,46.908382,492.89203,
1751399091.3743949,590.1605,253.39377,24.69328,414.29837,
1751399091.3782868,622.0228,1004.5474,1075.5295,763.102,
1751399091.3821788,713.89246,1318.037,1450.0,1013.9291,
1751399091.3860707,746.99384,888.25,1164.8324,871.96484,
1751399091.3899627,698.4923,311.27695,210.9107,558.8293,
1751399091.3938546,633.7942,263.12946,0.0,429.964,
1751399091.3977466,657.6024,898.1627,800.9827,745.1352,
1751399091.4016385,734.69147,1306.7966,1450.0,1012.6015,
1751399091.4055305,766.1112,989.94385,1363.8833,896.1271,
1751399091.4094224,734.957,359.77844,425.00763,592.19617,
1751399091.4133143,662.2047,142.40677,0.0,409.16498,
1751399091.4172063,650.7874,756.72955,664.32886,665.922,
1751399091.4210980,722.12354,1282.5459,1450.0,975.78284,
1751399091.4249899,764.87213,1046.5879,1173.3291,905.8628,
1751399091.4288819,739.7363,361.28305,310.12634,600.42725,
1751399091.4327738,663.0898,68.50394,0.0,390.2246,
1751399091.4366658,646.7161,635.74133,510.6818,617.15497,
1751399091.4405577,722.21204,1241.9215,1436.193,952.8597,
1751399091.4444497,768.14685,1026.9395,1335.3843,917.0146,
1751399091.4483416,735.93054,377.5682,438.3721,625.03204,
1751399091.4522336,652.2035,63.370567,0.0,374.382,
1751399091.4561255,621.9343,536.17163,492.361,533.0739,
1751399091.4600174,688.2256,1162.7968,1353.2626,900.02136,
1751399091.4639094,735.93054,1088.4514,1426.1918,925.15717,
1751399091.4678013,712.9189,482.62527,583.5226,651.4069,
1751399091.4716933,640.9632,101.516815,0.0,389.7821,
1751399091.4755852,608.6584,443.771,254.0133,509.35422,
1751399091.4794772,688.84515,1128.0138,1287.5023,900.90643,
1751399091.4833691,751.4191,1179.5245,1450.0,967.99426,
1751399091.4872611,725.04425,607.41925,598.3031,703.62573,
1751399091.4911530,655.6553,85.05463,0.0,424.7421,
1751399091.4950449,604.7641,345.79443,159.22298,475.8103,
1751399091.4989369,656.89435,1088.8054,1215.4581,850.36926,
1751399091.5028288,729.38104,1176.4268,914.0054,966.6667,
1751399091.5067208,716.4591,586.7088,230.11658,724.0707,
1751399091.5106127,646.45056,72.75224,7.7885613,419.96277,
1751399091.5145047,588.56744,230.82463,46.111824,410.13855,
1751399091.5183966,611.49054,959.7632,1148.1047,766.1112,
1751399091.5222883,682.9152,1115.6229,1342.6417,934.4503,
1751399091.5261803,692.65094,571.04315,480.32413,732.39026,
1751399091.5300722,618.12854,94.79033,61.33492,409.519,
1751399091.5339642,532.8084,156.6563,0.0,333.138,
1751399091.5378561,553.5189,766.1112,888.1615,680.8796,
1751399091.5417480,626.9792,1059.5984,1321.8428,900.5524,
1751399091.5456400,631.75854,629.7229,404.73965,728.23047,
1751399091.5495319,562.9006,178.51736,55.05097,414.29837,
1751399091.5534239,482.8908,89.037415,0.0,297.73544,
1751399091.5573158,492.2725,529.4451,591.4881,618.12854,
1751399091.5612078,572.6363,971.3575,1368.1316,886.21436,
1751399091.5650997,588.4789,709.99817,534.4015,754.7824,
1751399091.5689917,516.4347,143.1148,16.37368,433.85828,
1751399091.5728836,434.74332,0.0,0.0,264.8996,
1751399091.5767756,434.21228,575.9995,618.5711,552.89935,
1751399091.5806675,504.13232,1120.4907,1366.0074,860.63605,
1751399091.5845594,544.2257,780.4492,508.0266,784.1665,
1751399091.5884514,495.7242,193.91748,58.237198,485.546,
1751399091.5923433,410.13855,22.657633,0.0,285.7871,
1751399091.5962353,400.8454,570.1581,492.4495,526.79,
1751399091.6001272,484.57242,1098.3641,1394.3295,869.8407,
1751399091.6040192,539.35785,889.93164,945.6907,841.9612,
1751399091.6079111,496.34378,319.95056,222.85905,547.8545,
1751399091.6118031,417.21906,20.621986,0.0,321.63217,
1751399091.6156950,398.89825,484.04138,389.33957,522.6302,
1751399091.6195869,459.70212,1106.7722,1365.6534,864.4418,
1751399091.6234789,503.5128,1031.2764,1285.3782,860.1935,
1751399091.6273706,484.04138,472.53555,507.67258,593.7893,
1751399091.6312625,416.59952,45.315266,0.0,347.29904,
1751399091.6351545,391.02118,454.12622,321.18964,496.78632,
1751399091.6390464,460.85272,1173.8601,1313.8772,880.4614,
1751399091.6429384,529.7992,1185.012,1307.1508,939.76074,
1751399091.6468303,525.37384,560.42236,613.52625,690.43823,
1751399091.6507223,462.1803,129.83885,0.0,420.93634,
1751399091.6546142,423.50302,500.14954,229.85106,508.0266,
1751399091.6585062,495.6357,1225.9019,1253.6929,905.5973,
1751399091.6623981,583.6111,1311.222,1450.0,1019.9475,
1751399091.6662900,586.00073,767.61584,875.41656,783.901,
1751399091.6701820,522.1876,291.54,0.0,493.9541,
1751399091.6740739,476.78387,542.89813,312.162,517.05426,
1751399091.6779659,547.2349,1205.5454,1172.7095,906.0398,
1751399091.6818578,633.9712,1378.0443,1450.0,1060.7489,
1751399091.6857498,654.06213,910.2881,1078.8042,860.72455,
1751399091.6896417,616.4469,399.87183,24.69328,579.45123,
1751399091.6935337,566.61786,506.2565,87.26729,547.943,
1751399091.6974256,602.63995,1152.6185,1126.2437,899.4903,
1751399091.7013175,692.82794,1435.308,1450.0,1100.4883,
1751399091.7052095,737.2581,1050.2167,1207.3156,944.27454,
1751399091.7091014,694.9521,437.92957,138.778,636.9804,
1751399091.7129934,639.01605,468.9953,70.98212,542.6326,
1751399091.7168853,670.2588,1114.2953,1096.063,877.3637,
1751399091.7207773,750.00305,1415.571,1450.0,1109.87,
1751399091.7246692,790.09644,1081.017,1312.461,967.90576,
1751399091.7285609,751.1536,468.72977,227.5499,658.576,
1751399091.7324529,684.2428,390.31314,8.05408,516.3462,
1751399091.7363448,696.6337,1050.6592,1114.8263,813.55066,
1751399091.7402368,787.3527,1422.386,1450.0,1093.7618,
1751399091.7441287,836.38525,1097.1251,1332.021,986.49207,
1751399091.7480206,786.8217,482.71378,390.2246,673.445,
1751399091.7519126,712.1223,295.16876,0.0,485.6345,
1751399091.7558045,721.14996,858.42334,705.0418,736.9041,
1751399091.7596965,798.416,1361.5822,1450.0,1046.4994,
1751399091.7635884,849.74976,1127.5713,1450.0,989.4128,
